d / dilky	  d / nm	signal
  24.4999	 769.812	    6
  24.5003	 769.832	    7
  24.5006	 769.851	    6
  24.5010	 769.871	    7
  24.5014	 769.890	    6
  24.5017	 769.910	    7
  24.5021	 769.929	    6
  24.5025	 769.949	    6
  24.5028	 769.969	    6
  24.5032	 769.988	    7
  24.5036	 770.008	    6
  24.5040	 770.027	    7
  24.5043	 770.047	    6
  24.5047	 770.066	    7
  24.5051	 770.086	    6
  24.5054	 770.106	    7
  24.5058	 770.125	    6
  24.5062	 770.145	    6
  24.5065	 770.164	    6
  24.5069	 770.184	    7
  24.5073	 770.203	    6
  24.5077	 770.223	    7
  24.5080	 770.243	    6
  24.5084	 770.262	    7
  24.5088	 770.282	    6
  24.5091	 770.301	    7
  24.5095	 770.321	    6
  24.5099	 770.340	    7
  24.5102	 770.360	    6
  24.5106	 770.379	    6
  24.5110	 770.399	    6
  24.5114	 770.419	    7
  24.5117	 770.438	    6
  24.5121	 770.458	    7
  24.5125	 770.477	    6
  24.5128	 770.497	    7
  24.5132	 770.516	    6
  24.5136	 770.536	    7
  24.5139	 770.556	    7
  24.5143	 770.575	    7
  24.5147	 770.595	    7
  24.5151	 770.614	    7
  24.5154	 770.634	    6
  24.5158	 770.653	    7
  24.5162	 770.673	    6
  24.5165	 770.693	    7
  24.5169	 770.712	    6
  24.5173	 770.732	    7
  24.5176	 770.751	    6
  24.5180	 770.771	    7
  24.5184	 770.790	    6
  24.5187	 770.810	    7
  24.5191	 770.830	    7
  24.5195	 770.849	    7
  24.5199	 770.869	    7
  24.5202	 770.888	    7
  24.5206	 770.908	    7
  24.5210	 770.927	    7
  24.5213	 770.947	    6
  24.5217	 770.966	    7
  24.5221	 770.986	    7
  24.5224	 771.006	    7
  24.5228	 771.025	    6
  24.5232	 771.045	    7
  24.5236	 771.064	    7
  24.5239	 771.084	    7
  24.5243	 771.103	    7
  24.5247	 771.123	    7
  24.5250	 771.143	    7
  24.5254	 771.162	    7
  24.5258	 771.182	    7
  24.5261	 771.201	    7
  24.5265	 771.221	    7
  24.5269	 771.240	    7
  24.5273	 771.260	    7
  24.5276	 771.280	    7
  24.5280	 771.299	    7
  24.5284	 771.319	    7
  24.5287	 771.338	    7
  24.5291	 771.358	    7
  24.5295	 771.377	    7
  24.5298	 771.397	    7
  24.5302	 771.416	    7
  24.5306	 771.436	    7
  24.5310	 771.456	    7
  24.5313	 771.475	    7
  24.5317	 771.495	    7
  24.5321	 771.514	    7
  24.5324	 771.534	    7
  24.5328	 771.553	    7
  24.5332	 771.573	    7
  24.5335	 771.593	    7
  24.5339	 771.612	    7
  24.5343	 771.632	    7
  24.5347	 771.651	    7
  24.5350	 771.671	    7
  24.5354	 771.690	    7
  24.5358	 771.710	    7
  24.5361	 771.730	    7
  24.5365	 771.749	    7
  24.5369	 771.769	    7
  24.5372	 771.788	    7
  24.5376	 771.808	    7
  24.5380	 771.827	    7
  24.5384	 771.847	    7
  24.5387	 771.867	    7
  24.5391	 771.886	    7
  24.5395	 771.906	    7
  24.5398	 771.925	    7
  24.5402	 771.945	    7
  24.5406	 771.964	    7
  24.5409	 771.984	    7
  24.5413	 772.003	    7
  24.5417	 772.023	    7
  24.5420	 772.043	    7
  24.5424	 772.062	    7
  24.5428	 772.082	    7
  24.5432	 772.101	    7
  24.5435	 772.121	    7
  24.5439	 772.140	    7
  24.5443	 772.160	    7
  24.5446	 772.180	    7
  24.5450	 772.199	    7
  24.5454	 772.219	    7
  24.5457	 772.238	    7
  24.5461	 772.258	    7
  24.5465	 772.277	    7
  24.5469	 772.297	    7
  24.5472	 772.317	    7
  24.5476	 772.336	    7
  24.5480	 772.356	    7
  24.5483	 772.375	    7
  24.5487	 772.395	    7
  24.5491	 772.414	    7
  24.5494	 772.434	    7
  24.5498	 772.453	    7
  24.5502	 772.473	    7
  24.5506	 772.493	    7
  24.5509	 772.512	    7
  24.5513	 772.532	    7
  24.5517	 772.551	    7
  24.5520	 772.571	    7
  24.5524	 772.590	    7
  24.5528	 772.610	    7
  24.5531	 772.630	    7
  24.5535	 772.649	    7
  24.5539	 772.669	    7
  24.5543	 772.688	    7
  24.5546	 772.708	    7
  24.5550	 772.727	    7
  24.5554	 772.747	    7
  24.5557	 772.767	    7
  24.5561	 772.786	    7
  24.5565	 772.806	    7
  24.5568	 772.825	    7
  24.5572	 772.845	    7
  24.5576	 772.864	    7
  24.5580	 772.884	    7
  24.5583	 772.904	    7
  24.5587	 772.923	    7
  24.5591	 772.943	    7
  24.5594	 772.962	    8
  24.5598	 772.982	    7
  24.5602	 773.001	    8
  24.5605	 773.021	    7
  24.5609	 773.040	    8
  24.5613	 773.060	    7
  24.5617	 773.080	    8
  24.5620	 773.099	    8
  24.5624	 773.119	    8
  24.5628	 773.138	    8
  24.5631	 773.158	    8
  24.5635	 773.177	    8
  24.5639	 773.197	    8
  24.5642	 773.217	    8
  24.5646	 773.236	    8
  24.5650	 773.256	    8
  24.5653	 773.275	    8
  24.5657	 773.295	    8
  24.5661	 773.314	    8
  24.5665	 773.334	    8
  24.5668	 773.354	    8
  24.5672	 773.373	    8
  24.5676	 773.393	    8
  24.5679	 773.412	    8
  24.5683	 773.432	    9
  24.5687	 773.451	    8
  24.5690	 773.471	    9
  24.5694	 773.490	    9
  24.5698	 773.510	    9
  24.5702	 773.530	    9
  24.5705	 773.549	    9
  24.5709	 773.569	    9
  24.5713	 773.588	    9
  24.5716	 773.608	    9
  24.5720	 773.627	    9
  24.5724	 773.647	    9
  24.5727	 773.667	   10
  24.5731	 773.686	    9
  24.5735	 773.706	   10
  24.5739	 773.725	   10
  24.5742	 773.745	   10
  24.5746	 773.764	   10
  24.5750	 773.784	   10
  24.5753	 773.804	   10
  24.5757	 773.823	   10
  24.5761	 773.843	   10
  24.5764	 773.862	   10
  24.5768	 773.882	   10
  24.5772	 773.901	   11
  24.5776	 773.921	   10
  24.5779	 773.941	   11
  24.5783	 773.960	   11
  24.5787	 773.980	   11
  24.5790	 773.999	   11
  24.5794	 774.019	   11
  24.5798	 774.038	   11
  24.5801	 774.058	   11
  24.5805	 774.077	   11
  24.5809	 774.097	   11
  24.5813	 774.117	   11
  24.5816	 774.136	   11
  24.5820	 774.156	   11
  24.5824	 774.175	   11
  24.5827	 774.195	   11
  24.5831	 774.214	   11
  24.5835	 774.234	   11
  24.5838	 774.254	   11
  24.5842	 774.273	   11
  24.5846	 774.293	   12
  24.5850	 774.312	   11
  24.5853	 774.332	   12
  24.5857	 774.351	   11
  24.5861	 774.371	   12
  24.5864	 774.391	   11
  24.5868	 774.410	   12
  24.5872	 774.430	   11
  24.5875	 774.449	   11
  24.5879	 774.469	   11
  24.5883	 774.488	   11
  24.5886	 774.508	   11
  24.5890	 774.527	   11
  24.5894	 774.547	   11
  24.5898	 774.567	   11
  24.5901	 774.586	   11
  24.5905	 774.606	   11
  24.5909	 774.625	   11
  24.5912	 774.645	   11
  24.5916	 774.664	   11
  24.5920	 774.684	   11
  24.5923	 774.704	   11
  24.5927	 774.723	   11
  24.5931	 774.743	   11
  24.5935	 774.762	   11
  24.5938	 774.782	   11
  24.5942	 774.801	   11
  24.5946	 774.821	   11
  24.5949	 774.841	   11
  24.5953	 774.860	   11
  24.5957	 774.880	   11
  24.5960	 774.899	   10
  24.5964	 774.919	   10
  24.5968	 774.938	   10
  24.5972	 774.958	   10
  24.5975	 774.977	   10
  24.5979	 774.997	   10
  24.5983	 775.017	   10
  24.5986	 775.036	   10
  24.5990	 775.056	   10
  24.5994	 775.075	   10
  24.5997	 775.095	   10
  24.6001	 775.114	   10
  24.6005	 775.134	    9
  24.6009	 775.154	   10
  24.6012	 775.173	    9
  24.6016	 775.193	   10
  24.6020	 775.212	    9
  24.6023	 775.232	    9
  24.6027	 775.251	    9
  24.6031	 775.271	    9
  24.6034	 775.291	    9
  24.6038	 775.310	    9
  24.6042	 775.330	    9
  24.6046	 775.349	    9
  24.6049	 775.369	    9
  24.6053	 775.388	    9
  24.6057	 775.408	    9
  24.6060	 775.428	    9
  24.6064	 775.447	    9
  24.6068	 775.467	    9
  24.6071	 775.486	    8
  24.6075	 775.506	    9
  24.6079	 775.525	    8
  24.6083	 775.545	    8
  24.6086	 775.564	    8
  24.6090	 775.584	    8
  24.6094	 775.604	    8
  24.6097	 775.623	    8
  24.6101	 775.643	    8
  24.6105	 775.662	    8
  24.6108	 775.682	    8
  24.6112	 775.701	    8
  24.6116	 775.721	    8
  24.6119	 775.741	    8
  24.6123	 775.760	    8
  24.6127	 775.780	    8
  24.6131	 775.799	    8
  24.6134	 775.819	    8
  24.6138	 775.838	    8
  24.6142	 775.858	    8
  24.6145	 775.878	    8
  24.6149	 775.897	    8
  24.6153	 775.917	    8
  24.6156	 775.936	    8
  24.6160	 775.956	    8
  24.6164	 775.975	    8
  24.6168	 775.995	    8
  24.6171	 776.014	    8
  24.6175	 776.034	    8
  24.6179	 776.054	    8
  24.6182	 776.073	    8
  24.6186	 776.093	    8
  24.6190	 776.112	    8
  24.6193	 776.132	    8
  24.6197	 776.151	    8
  24.6201	 776.171	    8
  24.6205	 776.191	    8
  24.6208	 776.210	    8
  24.6212	 776.230	    8
  24.6216	 776.249	    8
  24.6219	 776.269	    8
  24.6223	 776.288	    8
  24.6227	 776.308	    8
  24.6230	 776.328	    8
  24.6234	 776.347	    8
  24.6238	 776.367	    8
  24.6242	 776.386	    8
  24.6245	 776.406	    8
  24.6249	 776.425	    8
  24.6253	 776.445	    8
  24.6256	 776.465	    8
  24.6260	 776.484	    8
  24.6264	 776.504	    8
  24.6267	 776.523	    8
  24.6271	 776.543	    8
  24.6275	 776.562	    8
  24.6279	 776.582	    8
  24.6282	 776.601	    8
  24.6286	 776.621	    8
  24.6290	 776.641	    8
  24.6293	 776.660	    8
  24.6297	 776.680	    8
  24.6301	 776.699	    8
  24.6304	 776.719	    8
  24.6308	 776.738	    8
  24.6312	 776.758	    8
  24.6316	 776.778	    8
  24.6319	 776.797	    8
  24.6323	 776.817	    8
  24.6327	 776.836	    8
  24.6330	 776.856	    7
  24.6334	 776.875	    8
  24.6338	 776.895	    8
  24.6341	 776.915	    8
  24.6345	 776.934	    8
  24.6349	 776.954	    8
  24.6352	 776.973	    8
  24.6356	 776.993	    8
  24.6360	 777.012	    8
  24.6364	 777.032	    8
  24.6367	 777.051	    8
  24.6371	 777.071	    8
  24.6375	 777.091	    8
  24.6378	 777.110	    8
  24.6382	 777.130	    8
  24.6386	 777.149	    8
  24.6389	 777.169	    8
  24.6393	 777.188	    8
  24.6397	 777.208	    8
  24.6401	 777.228	    8
  24.6404	 777.247	    8
  24.6408	 777.267	    8
  24.6412	 777.286	    8
  24.6415	 777.306	    8
  24.6419	 777.325	    8
  24.6423	 777.345	    8
  24.6426	 777.365	    8
  24.6430	 777.384	    8
  24.6434	 777.404	    8
  24.6438	 777.423	    8
  24.6441	 777.443	    8
  24.6445	 777.462	    8
  24.6449	 777.482	    8
  24.6452	 777.502	    8
  24.6456	 777.521	    8
  24.6460	 777.541	    8
  24.6463	 777.560	    8
  24.6467	 777.580	    8
  24.6471	 777.599	    8
  24.6475	 777.619	    8
  24.6478	 777.638	    8
  24.6482	 777.658	    8
  24.6486	 777.678	    8
  24.6489	 777.697	    8
  24.6493	 777.717	    8
  24.6497	 777.736	    8
  24.6500	 777.756	    8
  24.6504	 777.775	    8
  24.6508	 777.795	    8
  24.6512	 777.815	    8
  24.6515	 777.834	    8
  24.6519	 777.854	    8
  24.6523	 777.873	    8
  24.6526	 777.893	    8
  24.6530	 777.912	    8
  24.6534	 777.932	    8
  24.6537	 777.952	    8
  24.6541	 777.971	    8
  24.6545	 777.991	    8
  24.6549	 778.010	    8
  24.6552	 778.030	    8
  24.6556	 778.049	    8
  24.6560	 778.069	    8
  24.6563	 778.088	    8
  24.6567	 778.108	    8
  24.6571	 778.128	    8
  24.6574	 778.147	    8
  24.6578	 778.167	    8
  24.6582	 778.186	    8
  24.6585	 778.206	    8
  24.6589	 778.225	    8
  24.6593	 778.245	    8
  24.6597	 778.265	    8
  24.6600	 778.284	    8
  24.6604	 778.304	    8
  24.6608	 778.323	    8
  24.6611	 778.343	    8
  24.6615	 778.362	    8
  24.6619	 778.382	    8
  24.6622	 778.402	    8
  24.6626	 778.421	    8
  24.6630	 778.441	    8
  24.6634	 778.460	    8
  24.6637	 778.480	    8
  24.6641	 778.499	    8
  24.6645	 778.519	    8
  24.6648	 778.539	    8
  24.6652	 778.558	    8
  24.6656	 778.578	    8
  24.6659	 778.597	    8
  24.6663	 778.617	    8
  24.6667	 778.636	    8
  24.6671	 778.656	    8
  24.6674	 778.675	    8
  24.6678	 778.695	    8
  24.6682	 778.715	    8
  24.6685	 778.734	    8
  24.6689	 778.754	    8
  24.6693	 778.773	    8
  24.6696	 778.793	    8
  24.6700	 778.812	    8
  24.6704	 778.832	    8
  24.6708	 778.852	    8
  24.6711	 778.871	    8
  24.6715	 778.891	    8
  24.6719	 778.910	    8
  24.6722	 778.930	    8
  24.6726	 778.949	    8
  24.6730	 778.969	    8
  24.6733	 778.989	    8
  24.6737	 779.008	    8
  24.6741	 779.028	    8
  24.6745	 779.047	    8
  24.6748	 779.067	    8
  24.6752	 779.086	    8
  24.6756	 779.106	    8
  24.6759	 779.125	    8
  24.6763	 779.145	    8
  24.6767	 779.165	    8
  24.6770	 779.184	    8
  24.6774	 779.204	    8
  24.6778	 779.223	    9
  24.6782	 779.243	    8
  24.6785	 779.262	    9
  24.6789	 779.282	    8
  24.6793	 779.302	    9
  24.6796	 779.321	    8
  24.6800	 779.341	    8
  24.6804	 779.360	    8
  24.6807	 779.380	    9
  24.6811	 779.399	    8
  24.6815	 779.419	    9
  24.6818	 779.439	    9
  24.6822	 779.458	    9
  24.6826	 779.478	    9
  24.6830	 779.497	    9
  24.6833	 779.517	    8
  24.6837	 779.536	    9
  24.6841	 779.556	    8
  24.6844	 779.575	    9
  24.6848	 779.595	    9
  24.6852	 779.615	    9
  24.6855	 779.634	    8
  24.6859	 779.654	    9
  24.6863	 779.673	    9
  24.6867	 779.693	    9
  24.6870	 779.712	    9
  24.6874	 779.732	    9
  24.6878	 779.752	    9
  24.6881	 779.771	    9
  24.6885	 779.791	    9
  24.6889	 779.810	    9
  24.6892	 779.830	    9
  24.6896	 779.849	    9
  24.6900	 779.869	    9
  24.6904	 779.889	    9
  24.6907	 779.908	    9
  24.6911	 779.928	    9
  24.6915	 779.947	    9
  24.6918	 779.967	    9
  24.6922	 779.986	    9
  24.6926	 780.006	    9
  24.6929	 780.026	    9
  24.6933	 780.045	    9
  24.6937	 780.065	    9
  24.6941	 780.084	    9
  24.6944	 780.104	    9
  24.6948	 780.123	    9
  24.6952	 780.143	    9
  24.6955	 780.162	    9
  24.6959	 780.182	    9
  24.6963	 780.202	    9
  24.6966	 780.221	    9
  24.6970	 780.241	    9
  24.6974	 780.260	    9
  24.6978	 780.280	    9
  24.6981	 780.299	    9
  24.6985	 780.319	    9
  24.6989	 780.339	    9
  24.6992	 780.358	    9
  24.6996	 780.378	    9
  24.7000	 780.397	    9
  24.7003	 780.417	    9
  24.7007	 780.436	    9
  24.7011	 780.456	    9
  24.7015	 780.476	    9
  24.7018	 780.495	    9
  24.7022	 780.515	    9
  24.7026	 780.534	    9
  24.7029	 780.554	    9
  24.7033	 780.573	    9
  24.7037	 780.593	    9
  24.7040	 780.612	    9
  24.7044	 780.632	   10
  24.7048	 780.652	    9
  24.7051	 780.671	    9
  24.7055	 780.691	    9
  24.7059	 780.710	    9
  24.7063	 780.730	    9
  24.7066	 780.749	    9
  24.7070	 780.769	    9
  24.7074	 780.789	   10
  24.7077	 780.808	    9
  24.7081	 780.828	   10
  24.7085	 780.847	    9
  24.7088	 780.867	   10
  24.7092	 780.886	    9
  24.7096	 780.906	   10
  24.7100	 780.926	   10
  24.7103	 780.945	   10
  24.7107	 780.965	    9
  24.7111	 780.984	   10
  24.7114	 781.004	    9
  24.7118	 781.023	   10
  24.7122	 781.043	    9
  24.7125	 781.063	   10
  24.7129	 781.082	   10
  24.7133	 781.102	   10
  24.7137	 781.121	   10
  24.7140	 781.141	   10
  24.7144	 781.160	   10
  24.7148	 781.180	   10
  24.7151	 781.199	   10
  24.7155	 781.219	   10
  24.7159	 781.239	   10
  24.7162	 781.258	   10
  24.7166	 781.278	   10
  24.7170	 781.297	   10
  24.7174	 781.317	   10
  24.7177	 781.336	   10
  24.7181	 781.356	   10
  24.7185	 781.376	   10
  24.7188	 781.395	   10
  24.7192	 781.415	   10
  24.7196	 781.434	   10
  24.7199	 781.454	   10
  24.7203	 781.473	   10
  24.7207	 781.493	   10
  24.7211	 781.513	   10
  24.7214	 781.532	   10
  24.7218	 781.552	   10
  24.7222	 781.571	   10
  24.7225	 781.591	   10
  24.7229	 781.610	   10
  24.7233	 781.630	   10
  24.7236	 781.649	   10
  24.7240	 781.669	   10
  24.7244	 781.689	   10
  24.7248	 781.708	   10
  24.7251	 781.728	   10
  24.7255	 781.747	   10
  24.7259	 781.767	   10
  24.7262	 781.786	   10
  24.7266	 781.806	   10
  24.7270	 781.826	   10
  24.7273	 781.845	   10
  24.7277	 781.865	   10
  24.7281	 781.884	   10
  24.7284	 781.904	   10
  24.7288	 781.923	   11
  24.7292	 781.943	   10
  24.7296	 781.963	   11
  24.7299	 781.982	   11
  24.7303	 782.002	   11
  24.7307	 782.021	   11
  24.7310	 782.041	   11
  24.7314	 782.060	   11
  24.7318	 782.080	   11
  24.7321	 782.100	   11
  24.7325	 782.119	   11
  24.7329	 782.139	   11
  24.7333	 782.158	   11
  24.7336	 782.178	   11
  24.7340	 782.197	   11
  24.7344	 782.217	   11
  24.7347	 782.236	   11
  24.7351	 782.256	   11
  24.7355	 782.276	   11
  24.7358	 782.295	   11
  24.7362	 782.315	   11
  24.7366	 782.334	   11
  24.7370	 782.354	   11
  24.7373	 782.373	   11
  24.7377	 782.393	   11
  24.7381	 782.413	   11
  24.7384	 782.432	   11
  24.7388	 782.452	   11
  24.7392	 782.471	   12
  24.7395	 782.491	   11
  24.7399	 782.510	   12
  24.7403	 782.530	   11
  24.7407	 782.550	   12
  24.7410	 782.569	   11
  24.7414	 782.589	   12
  24.7418	 782.608	   12
  24.7421	 782.628	   12
  24.7425	 782.647	   12
  24.7429	 782.667	   12
  24.7432	 782.686	   12
  24.7436	 782.706	   12
  24.7440	 782.726	   12
  24.7444	 782.745	   12
  24.7447	 782.765	   12
  24.7451	 782.784	   12
  24.7455	 782.804	   12
  24.7458	 782.823	   12
  24.7462	 782.843	   12
  24.7466	 782.863	   12
  24.7469	 782.882	   12
  24.7473	 782.902	   12
  24.7477	 782.921	   12
  24.7481	 782.941	   12
  24.7484	 782.960	   12
  24.7488	 782.980	   12
  24.7492	 783.000	   12
  24.7495	 783.019	   13
  24.7499	 783.039	   12
  24.7503	 783.058	   13
  24.7506	 783.078	   12
  24.7510	 783.097	   13
  24.7514	 783.117	   13
  24.7517	 783.137	   13
  24.7521	 783.156	   13
  24.7525	 783.176	   13
  24.7529	 783.195	   13
  24.7532	 783.215	   13
  24.7536	 783.234	   13
  24.7540	 783.254	   13
  24.7543	 783.273	   13
  24.7547	 783.293	   13
  24.7551	 783.313	   13
  24.7554	 783.332	   13
  24.7558	 783.352	   13
  24.7562	 783.371	   14
  24.7566	 783.391	   13
  24.7569	 783.410	   14
  24.7573	 783.430	   13
  24.7577	 783.450	   14
  24.7580	 783.469	   13
  24.7584	 783.489	   14
  24.7588	 783.508	   14
  24.7591	 783.528	   14
  24.7595	 783.547	   14
  24.7599	 783.567	   14
  24.7603	 783.587	   14
  24.7606	 783.606	   14
  24.7610	 783.626	   14
  24.7614	 783.645	   14
  24.7617	 783.665	   14
  24.7621	 783.684	   14
  24.7625	 783.704	   14
  24.7628	 783.723	   14
  24.7632	 783.743	   14
  24.7636	 783.763	   15
  24.7640	 783.782	   15
  24.7643	 783.802	   15
  24.7647	 783.821	   15
  24.7651	 783.841	   15
  24.7654	 783.860	   15
  24.7658	 783.880	   15
  24.7662	 783.900	   15
  24.7665	 783.919	   16
  24.7669	 783.939	   15
  24.7673	 783.958	   16
  24.7677	 783.978	   15
  24.7680	 783.997	   16
  24.7684	 784.017	   16
  24.7688	 784.037	   16
  24.7691	 784.056	   16
  24.7695	 784.076	   16
  24.7699	 784.095	   16
  24.7702	 784.115	   17
  24.7706	 784.134	   16
  24.7710	 784.154	   17
  24.7714	 784.174	   17
  24.7717	 784.193	   17
  24.7721	 784.213	   17
  24.7725	 784.232	   17
  24.7728	 784.252	   17
  24.7732	 784.271	   18
  24.7736	 784.291	   17
  24.7739	 784.310	   18
  24.7743	 784.330	   18
  24.7747	 784.350	   18
  24.7750	 784.369	   18
  24.7754	 784.389	   18
  24.7758	 784.408	   18
  24.7762	 784.428	   19
  24.7765	 784.447	   19
  24.7769	 784.467	   19
  24.7773	 784.487	   19
  24.7776	 784.506	   19
  24.7780	 784.526	   19
  24.7784	 784.545	   20
  24.7787	 784.565	   20
  24.7791	 784.584	   20
  24.7795	 784.604	   20
  24.7799	 784.624	   20
  24.7802	 784.643	   20
  24.7806	 784.663	   21
  24.7810	 784.682	   21
  24.7813	 784.702	   21
  24.7817	 784.721	   21
  24.7821	 784.741	   22
  24.7824	 784.760	   22
  24.7828	 784.780	   22
  24.7832	 784.800	   22
  24.7836	 784.819	   22
  24.7839	 784.839	   22
  24.7843	 784.858	   23
  24.7847	 784.878	   23
  24.7850	 784.897	   23
  24.7854	 784.917	   24
  24.7858	 784.937	   24
  24.7861	 784.956	   24
  24.7865	 784.976	   24
  24.7869	 784.995	   25
  24.7873	 785.015	   25
  24.7876	 785.034	   25
  24.7880	 785.054	   26
  24.7884	 785.074	   26
  24.7887	 785.093	   26
  24.7891	 785.113	   27
  24.7895	 785.132	   27
  24.7898	 785.152	   27
  24.7902	 785.171	   28
  24.7906	 785.191	   28
  24.7910	 785.210	   29
  24.7913	 785.230	   29
  24.7917	 785.250	   30
  24.7921	 785.269	   30
  24.7924	 785.289	   31
  24.7928	 785.308	   31
  24.7932	 785.328	   32
  24.7935	 785.347	   32
  24.7939	 785.367	   33
  24.7943	 785.387	   33
  24.7946	 785.406	   34
  24.7950	 785.426	   34
  24.7954	 785.445	   35
  24.7958	 785.465	   36
  24.7961	 785.484	   36
  24.7965	 785.504	   37
  24.7969	 785.524	   38
  24.7972	 785.543	   39
  24.7976	 785.563	   40
  24.7980	 785.582	   40
  24.7983	 785.602	   42
  24.7987	 785.621	   42
  24.7991	 785.641	   43
  24.7995	 785.661	   44
  24.7998	 785.680	   45
  24.8002	 785.700	   46
  24.8006	 785.719	   47
  24.8009	 785.739	   49
  24.8013	 785.758	   50
  24.8017	 785.778	   51
  24.8020	 785.797	   53
  24.8024	 785.817	   55
  24.8028	 785.837	   56
  24.8032	 785.856	   58
  24.8035	 785.876	   60
  24.8039	 785.895	   63
  24.8043	 785.915	   65
  24.8046	 785.934	   67
  24.8050	 785.954	   70
  24.8054	 785.974	   73
  24.8057	 785.993	   76
  24.8061	 786.013	   79
  24.8065	 786.032	   81
  24.8069	 786.052	   85
  24.8072	 786.071	   89
  24.8076	 786.091	   93
  24.8080	 786.111	   96
  24.8083	 786.130	  100
  24.8087	 786.150	  104
  24.8091	 786.169	  109
  24.8094	 786.189	  113
  24.8098	 786.208	  118
  24.8102	 786.228	  123
  24.8106	 786.247	  129
  24.8109	 786.267	  136
  24.8113	 786.287	  143
  24.8117	 786.306	  150
  24.8120	 786.326	  157
  24.8124	 786.345	  164
  24.8128	 786.365	  173
  24.8131	 786.384	  181
  24.8135	 786.404	  192
  24.8139	 786.424	  202
  24.8143	 786.443	  214
  24.8146	 786.463	  226
  24.8150	 786.482	  241
  24.8154	 786.502	  254
  24.8157	 786.521	  255
  24.8161	 786.541	  255
  24.8165	 786.561	  255
  24.8168	 786.580	  255
  24.8172	 786.600	  255
  24.8176	 786.619	  255
  24.8179	 786.639	  255
  24.8183	 786.658	  255
  24.8187	 786.678	  255
  24.8191	 786.698	  255
  24.8194	 786.717	  255
  24.8198	 786.737	  255
  24.8202	 786.756	  255
  24.8205	 786.776	  255
  24.8209	 786.795	  255
  24.8213	 786.815	  255
  24.8216	 786.834	  255
  24.8220	 786.854	  255
  24.8224	 786.874	  255
  24.8228	 786.893	  255
  24.8231	 786.913	  255
  24.8235	 786.932	  255
  24.8239	 786.952	  255
  24.8242	 786.971	  255
  24.8246	 786.991	  255
  24.8250	 787.011	  255
  24.8253	 787.030	  255
  24.8257	 787.050	  255
  24.8261	 787.069	  255
  24.8265	 787.089	  255
  24.8268	 787.108	  255
  24.8272	 787.128	  255
  24.8276	 787.148	  255
  24.8279	 787.167	  255
  24.8283	 787.187	  255
  24.8287	 787.206	  255
  24.8290	 787.226	  255
  24.8294	 787.245	  255
  24.8298	 787.265	  255
  24.8302	 787.284	  255
  24.8305	 787.304	  255
  24.8309	 787.324	  255
  24.8313	 787.343	  255
  24.8316	 787.363	  255
  24.8320	 787.382	  255
  24.8324	 787.402	  255
  24.8327	 787.421	  255
  24.8331	 787.441	  255
  24.8335	 787.461	  255
  24.8339	 787.480	  255
  24.8342	 787.500	  255
  24.8346	 787.519	  255
  24.8350	 787.539	  255
  24.8353	 787.558	  255
  24.8357	 787.578	  255
  24.8361	 787.598	  255
  24.8364	 787.617	  255
  24.8368	 787.637	  255
  24.8372	 787.656	  255
  24.8376	 787.676	  255
  24.8379	 787.695	  255
  24.8383	 787.715	  255
  24.8387	 787.735	  255
  24.8390	 787.754	  255
  24.8394	 787.774	  255
  24.8398	 787.793	  255
  24.8401	 787.813	  255
  24.8405	 787.832	  255
  24.8409	 787.852	  255
  24.8412	 787.871	  255
  24.8416	 787.891	  255
  24.8420	 787.911	  255
  24.8424	 787.930	  255
  24.8427	 787.950	  255
  24.8431	 787.969	  255
  24.8435	 787.989	  255
  24.8438	 788.008	  255
  24.8442	 788.028	  255
  24.8446	 788.048	  255
  24.8449	 788.067	  255
  24.8453	 788.087	  255
  24.8457	 788.106	  255
  24.8461	 788.126	  255
  24.8464	 788.145	  255
  24.8468	 788.165	  255
  24.8472	 788.185	  255
  24.8475	 788.204	  255
  24.8479	 788.224	  255
  24.8483	 788.243	  255
  24.8486	 788.263	  255
  24.8490	 788.282	  255
  24.8494	 788.302	  255
  24.8498	 788.321	  255
  24.8501	 788.341	  255
  24.8505	 788.361	  255
  24.8509	 788.380	  255
  24.8512	 788.400	  255
  24.8516	 788.419	  255
  24.8520	 788.439	  255
  24.8523	 788.458	  255
  24.8527	 788.478	  255
  24.8531	 788.498	  255
  24.8535	 788.517	  255
  24.8538	 788.537	  255
  24.8542	 788.556	  255
  24.8546	 788.576	  255
  24.8549	 788.595	  255
  24.8553	 788.615	  255
  24.8557	 788.635	  255
  24.8560	 788.654	  255
  24.8564	 788.674	  231
  24.8568	 788.693	  209
  24.8572	 788.713	  190
  24.8575	 788.732	  172
  24.8579	 788.752	  153
  24.8583	 788.772	  135
  24.8586	 788.791	  118
  24.8590	 788.811	  102
  24.8594	 788.830	   89
  24.8597	 788.850	   79
  24.8601	 788.869	   71
  24.8605	 788.889	   66
  24.8609	 788.908	   62
  24.8612	 788.928	   60
  24.8616	 788.948	   58
  24.8620	 788.967	   56
  24.8623	 788.987	   54
  24.8627	 789.006	   53
  24.8631	 789.026	   51
  24.8634	 789.045	   49
  24.8638	 789.065	   48
  24.8642	 789.085	   46
  24.8645	 789.104	   45
  24.8649	 789.124	   44
  24.8653	 789.143	   42
  24.8657	 789.163	   42
  24.8660	 789.182	   41
  24.8664	 789.202	   40
  24.8668	 789.222	   39
  24.8671	 789.241	   38
  24.8675	 789.261	   37
  24.8679	 789.280	   36
  24.8682	 789.300	   36
  24.8686	 789.319	   35
  24.8690	 789.339	   34
  24.8694	 789.358	   34
  24.8697	 789.378	   33
  24.8701	 789.398	   32
  24.8705	 789.417	   32
  24.8708	 789.437	   31
  24.8712	 789.456	   31
  24.8716	 789.476	   30
  24.8719	 789.495	   29
  24.8723	 789.515	   29
  24.8727	 789.535	   28
  24.8731	 789.554	   28
  24.8734	 789.574	   27
  24.8738	 789.593	   27
  24.8742	 789.613	   26
  24.8745	 789.632	   26
  24.8749	 789.652	   26
  24.8753	 789.672	   25
  24.8756	 789.691	   25
  24.8760	 789.711	   25
  24.8764	 789.730	   24
  24.8768	 789.750	   24
  24.8771	 789.769	   24
  24.8775	 789.789	   24
  24.8779	 789.808	   23
  24.8782	 789.828	   23
  24.8786	 789.848	   22
  24.8790	 789.867	   22
  24.8793	 789.887	   22
  24.8797	 789.906	   22
  24.8801	 789.926	   21
  24.8805	 789.945	   21
  24.8808	 789.965	   21
  24.8812	 789.985	   21
  24.8816	 790.004	   20
  24.8819	 790.024	   20
  24.8823	 790.043	   20
  24.8827	 790.063	   20
  24.8830	 790.082	   20
  24.8834	 790.102	   20
  24.8838	 790.122	   19
  24.8842	 790.141	   19
  24.8845	 790.161	   19
  24.8849	 790.180	   19
  24.8853	 790.200	   18
  24.8856	 790.219	   18
  24.8860	 790.239	   18
  24.8864	 790.259	   18
  24.8867	 790.278	   18
  24.8871	 790.298	   18
  24.8875	 790.317	   17
  24.8878	 790.337	   17
  24.8882	 790.356	   17
  24.8886	 790.376	   17
  24.8890	 790.395	   17
  24.8893	 790.415	   17
  24.8897	 790.435	   16
  24.8901	 790.454	   17
  24.8904	 790.474	   16
  24.8908	 790.493	   16
  24.8912	 790.513	   16
  24.8915	 790.532	   16
  24.8919	 790.552	   16
  24.8923	 790.572	   16
  24.8927	 790.591	   15
  24.8930	 790.611	   15
  24.8934	 790.630	   15
  24.8938	 790.650	   15
  24.8941	 790.669	   15
  24.8945	 790.689	   15
  24.8949	 790.709	   15
  24.8952	 790.728	   15
  24.8956	 790.748	   15
  24.8960	 790.767	   15
  24.8964	 790.787	   14
  24.8967	 790.806	   14
  24.8971	 790.826	   14
  24.8975	 790.845	   14
  24.8978	 790.865	   14
  24.8982	 790.885	   14
  24.8986	 790.904	   14
  24.8989	 790.924	   14
  24.8993	 790.943	   14
  24.8997	 790.963	   14
  24.9001	 790.982	   13
  24.9004	 791.002	   13
  24.9008	 791.022	   13
  24.9012	 791.041	   13
  24.9015	 791.061	   13
  24.9019	 791.080	   13
  24.9023	 791.100	   13
  24.9026	 791.119	   13
  24.9030	 791.139	   13
  24.9034	 791.159	   13
  24.9038	 791.178	   13
  24.9041	 791.198	   13
  24.9045	 791.217	   13
  24.9049	 791.237	   13
  24.9052	 791.256	   13
  24.9056	 791.276	   13
  24.9060	 791.296	   12
  24.9063	 791.315	   12
  24.9067	 791.335	   12
  24.9071	 791.354	   12
  24.9075	 791.374	   12
  24.9078	 791.393	   12
  24.9082	 791.413	   12
  24.9086	 791.432	   12
  24.9089	 791.452	   12
  24.9093	 791.472	   12
  24.9097	 791.491	   12
  24.9100	 791.511	   12
  24.9104	 791.530	   12
  24.9108	 791.550	   12
  24.9111	 791.569	   12
  24.9115	 791.589	   12
  24.9119	 791.609	   12
  24.9123	 791.628	   12
  24.9126	 791.648	   11
  24.9130	 791.667	   12
  24.9134	 791.687	   11
  24.9137	 791.706	   12
  24.9141	 791.726	   11
  24.9145	 791.746	   11
  24.9148	 791.765	   11
  24.9152	 791.785	   11
  24.9156	 791.804	   11
  24.9160	 791.824	   11
  24.9163	 791.843	   11
  24.9167	 791.863	   11
  24.9171	 791.882	   11
  24.9174	 791.902	   11
  24.9178	 791.922	   11
  24.9182	 791.941	   11
  24.9185	 791.961	   11
  24.9189	 791.980	   11
  24.9193	 792.000	   11
  24.9197	 792.019	   11
  24.9200	 792.039	   10
  24.9204	 792.059	   11
  24.9208	 792.078	   10
  24.9211	 792.098	   11
  24.9215	 792.117	   10
  24.9219	 792.137	   10
  24.9222	 792.156	   10
  24.9226	 792.176	   10
  24.9230	 792.196	   10
  24.9234	 792.215	   10
  24.9237	 792.235	   10
  24.9241	 792.254	   10
  24.9245	 792.274	   10
  24.9248	 792.293	   10
  24.9252	 792.313	   10
  24.9256	 792.333	   10
  24.9259	 792.352	   10
  24.9263	 792.372	   10
  24.9267	 792.391	   10
  24.9271	 792.411	   10
  24.9274	 792.430	   10
  24.9278	 792.450	   10
  24.9282	 792.469	   10
  24.9285	 792.489	   10
  24.9289	 792.509	   10
  24.9293	 792.528	   10
  24.9296	 792.548	   10
  24.9300	 792.567	   10
  24.9304	 792.587	   10
  24.9308	 792.606	   10
  24.9311	 792.626	   10
  24.9315	 792.646	   10
  24.9319	 792.665	   10
  24.9322	 792.685	   10
  24.9326	 792.704	   10
  24.9330	 792.724	   10
  24.9333	 792.743	    9
  24.9337	 792.763	   10
  24.9341	 792.783	    9
  24.9344	 792.802	   10
  24.9348	 792.822	    9
  24.9352	 792.841	   10
  24.9356	 792.861	    9
  24.9359	 792.880	   10
  24.9363	 792.900	    9
  24.9367	 792.919	   10
  24.9370	 792.939	    9
  24.9374	 792.959	   10
  24.9378	 792.978	    9
  24.9381	 792.998	    9
  24.9385	 793.017	    9
  24.9389	 793.037	    9
  24.9393	 793.056	    9
  24.9396	 793.076	    9
  24.9400	 793.096	    9
  24.9404	 793.115	    9
  24.9407	 793.135	    9
  24.9411	 793.154	    9
  24.9415	 793.174	    9
  24.9418	 793.193	    9
  24.9422	 793.213	    9
  24.9426	 793.233	    9
  24.9430	 793.252	    9
  24.9433	 793.272	    9
  24.9437	 793.291	    9
  24.9441	 793.311	    9
  24.9444	 793.330	    9
  24.9448	 793.350	    9
  24.9452	 793.370	    9
  24.9455	 793.389	    9
  24.9459	 793.409	    9
  24.9463	 793.428	    9
  24.9467	 793.448	    9
  24.9470	 793.467	    9
  24.9474	 793.487	    9
  24.9478	 793.506	    9
  24.9481	 793.526	    9
  24.9485	 793.546	    9
  24.9489	 793.565	    9
  24.9492	 793.585	    9
  24.9496	 793.604	    9
  24.9500	 793.624	    9
  24.9504	 793.643	    8
  24.9507	 793.663	    9
  24.9511	 793.683	    8
  24.9515	 793.702	    9
  24.9518	 793.722	    8
  24.9522	 793.741	    9
  24.9526	 793.761	    8
  24.9529	 793.780	    9
  24.9533	 793.800	    8
  24.9537	 793.820	    9
  24.9541	 793.839	    8
  24.9544	 793.859	    8
  24.9548	 793.878	    8
  24.9552	 793.898	    9
  24.9555	 793.917	    8
  24.9559	 793.937	    9
  24.9563	 793.956	    8
  24.9566	 793.976	    8
  24.9570	 793.996	    8
  24.9574	 794.015	    8
  24.9577	 794.035	    8
  24.9581	 794.054	    8
  24.9585	 794.074	    8
  24.9589	 794.093	    8
  24.9592	 794.113	    8
  24.9596	 794.133	    8
  24.9600	 794.152	    8
  24.9603	 794.172	    8
  24.9607	 794.191	    8
  24.9611	 794.211	    8
  24.9614	 794.230	    8
  24.9618	 794.250	    8
  24.9622	 794.270	    8
  24.9626	 794.289	    8
  24.9629	 794.309	    8
  24.9633	 794.328	    8
  24.9637	 794.348	    8
  24.9640	 794.367	    8
  24.9644	 794.387	    8
  24.9648	 794.406	    8
  24.9651	 794.426	    8
  24.9655	 794.446	    8
  24.9659	 794.465	    8
  24.9663	 794.485	    8
  24.9666	 794.504	    8
  24.9670	 794.524	    8
  24.9674	 794.543	    8
  24.9677	 794.563	    8
  24.9681	 794.583	    8
  24.9685	 794.602	    8
  24.9688	 794.622	    8
  24.9692	 794.641	    8
  24.9696	 794.661	    8
  24.9700	 794.680	    8
  24.9703	 794.700	    8
  24.9707	 794.720	    8
  24.9711	 794.739	    8
  24.9714	 794.759	    8
  24.9718	 794.778	    8
  24.9722	 794.798	    8
  24.9725	 794.817	    8
  24.9729	 794.837	    8
  24.9733	 794.857	    8
  24.9737	 794.876	    8
  24.9740	 794.896	    8
  24.9744	 794.915	    8
  24.9748	 794.935	    8
  24.9751	 794.954	    8
  24.9755	 794.974	    8
  24.9759	 794.993	    8
  24.9762	 795.013	    8
  24.9766	 795.033	    8
  24.9770	 795.052	    8
  24.9774	 795.072	    8
  24.9777	 795.091	    8
  24.9781	 795.111	    8
  24.9785	 795.130	    8
  24.9788	 795.150	    8
  24.9792	 795.170	    8
  24.9796	 795.189	    8
  24.9799	 795.209	    8
  24.9803	 795.228	    8
  24.9807	 795.248	    8
  24.9810	 795.267	    8
  24.9814	 795.287	    8
  24.9818	 795.307	    8
  24.9822	 795.326	    8
  24.9825	 795.346	    8
  24.9829	 795.365	    7
  24.9833	 795.385	    8
  24.9836	 795.404	    7
  24.9840	 795.424	    8
  24.9844	 795.443	    7
  24.9847	 795.463	    8
  24.9851	 795.483	    7
  24.9855	 795.502	    8
  24.9859	 795.522	    7
  24.9862	 795.541	    8
  24.9866	 795.561	    7
  24.9870	 795.580	    8
  24.9873	 795.600	    7
  24.9877	 795.620	    8
  24.9881	 795.639	    7
  24.9884	 795.659	    8
  24.9888	 795.678	    7
  24.9892	 795.698	    7
  24.9896	 795.717	    7
  24.9899	 795.737	    8
  24.9903	 795.757	    7
  24.9907	 795.776	    8
  24.9910	 795.796	    7
  24.9914	 795.815	    8
  24.9918	 795.835	    7
  24.9921	 795.854	    7
  24.9925	 795.874	    7
  24.9929	 795.894	    8
  24.9933	 795.913	    7
  24.9936	 795.933	    7
  24.9940	 795.952	    7
  24.9944	 795.972	    7
  24.9947	 795.991	    7
  24.9951	 796.011	    7
  24.9955	 796.030	    7
  24.9958	 796.050	    7
  24.9962	 796.070	    7
  24.9966	 796.089	    8
  24.9970	 796.109	    7
  24.9973	 796.128	    7
  24.9977	 796.148	    7
  24.9981	 796.167	    7
  24.9984	 796.187	    7
  24.9988	 796.207	    7
  24.9992	 796.226	    7
  24.9995	 796.246	    7
  24.9999	 796.265	    7
  25.0003	 796.285	    7
  25.0007	 796.304	    7
  25.0010	 796.324	    7
  25.0014	 796.344	    7
  25.0018	 796.363	    7
  25.0021	 796.383	    7
  25.0025	 796.402	    7
  25.0029	 796.422	    7
  25.0032	 796.441	    7
  25.0036	 796.461	    7
  25.0040	 796.480	    7
  25.0043	 796.500	    7
  25.0047	 796.520	    7
  25.0051	 796.539	    7
  25.0055	 796.559	    7
  25.0058	 796.578	    7
  25.0062	 796.598	    7
  25.0066	 796.617	    7
  25.0069	 796.637	    7
  25.0073	 796.657	    7
  25.0077	 796.676	    7
  25.0080	 796.696	    7
  25.0084	 796.715	    7
  25.0088	 796.735	    7
  25.0092	 796.754	    7
  25.0095	 796.774	    7
  25.0099	 796.794	    7
  25.0103	 796.813	    7
  25.0106	 796.833	    7
  25.0110	 796.852	    7
  25.0114	 796.872	    7
  25.0117	 796.891	    7
  25.0121	 796.911	    7
  25.0125	 796.931	    7
  25.0129	 796.950	    7
  25.0132	 796.970	    7
  25.0136	 796.989	    7
  25.0140	 797.009	    7
  25.0143	 797.028	    7
  25.0147	 797.048	    7
  25.0151	 797.067	    7
  25.0154	 797.087	    7
  25.0158	 797.107	    7
  25.0162	 797.126	    7
  25.0166	 797.146	    7
  25.0169	 797.165	    7
  25.0173	 797.185	    7
  25.0177	 797.204	    7
  25.0180	 797.224	    7
  25.0184	 797.244	    7
  25.0188	 797.263	    7
  25.0191	 797.283	    7
  25.0195	 797.302	    7
  25.0199	 797.322	    7
  25.0203	 797.341	    7
  25.0206	 797.361	    7
  25.0210	 797.381	    7
  25.0214	 797.400	    7
  25.0217	 797.420	    7
  25.0221	 797.439	    7
  25.0225	 797.459	    7
  25.0228	 797.478	    7
  25.0232	 797.498	    7
  25.0236	 797.517	    7
  25.0240	 797.537	    7
  25.0243	 797.557	    7
  25.0247	 797.576	    7
  25.0251	 797.596	    7
  25.0254	 797.615	    7
  25.0258	 797.635	    7
  25.0262	 797.654	    7
  25.0265	 797.674	    7
  25.0269	 797.694	    7
  25.0273	 797.713	    7
  25.0276	 797.733	    7
  25.0280	 797.752	    7
  25.0284	 797.772	    7
  25.0288	 797.791	    7
  25.0291	 797.811	    7
  25.0295	 797.831	    7
  25.0299	 797.850	    7
  25.0302	 797.870	    7
  25.0306	 797.889	    7
  25.0310	 797.909	    7
  25.0313	 797.928	    7
  25.0317	 797.948	    7
  25.0321	 797.968	    7
  25.0325	 797.987	    7
  25.0328	 798.007	    7
  25.0332	 798.026	    7
  25.0336	 798.046	    7
  25.0339	 798.065	    7
  25.0343	 798.085	    7
  25.0347	 798.104	    7
  25.0350	 798.124	    7
  25.0354	 798.144	    7
  25.0358	 798.163	    7
  25.0362	 798.183	    7
  25.0365	 798.202	    7
  25.0369	 798.222	    7
  25.0373	 798.241	    7
  25.0376	 798.261	    7
  25.0380	 798.281	    7
  25.0384	 798.300	    7
  25.0387	 798.320	    7
  25.0391	 798.339	    7
  25.0395	 798.359	    7
  25.0399	 798.378	    7
  25.0402	 798.398	    7
  25.0406	 798.418	    7
  25.0410	 798.437	    7
  25.0413	 798.457	    7
  25.0417	 798.476	    7
  25.0421	 798.496	    7
  25.0424	 798.515	    7
  25.0428	 798.535	    7
  25.0432	 798.554	    7
  25.0436	 798.574	    7
  25.0439	 798.594	    7
  25.0443	 798.613	    7
  25.0447	 798.633	    7
  25.0450	 798.652	    7
  25.0454	 798.672	    7
  25.0458	 798.691	    7
  25.0461	 798.711	    7
  25.0465	 798.731	    7
  25.0469	 798.750	    7
  25.0472	 798.770	    7
  25.0476	 798.789	    7
  25.0480	 798.809	    7
  25.0484	 798.828	    7
  25.0487	 798.848	    7
  25.0491	 798.868	    7
  25.0495	 798.887	    7
  25.0498	 798.907	    7
  25.0502	 798.926	    7
  25.0506	 798.946	    7
  25.0509	 798.965	    7
  25.0513	 798.985	    7
  25.0517	 799.005	    7
  25.0521	 799.024	    7
  25.0524	 799.044	    7
  25.0528	 799.063	    7
  25.0532	 799.083	    7
  25.0535	 799.102	    7
  25.0539	 799.122	    7
  25.0543	 799.141	    7
  25.0546	 799.161	    7
  25.0550	 799.181	    7
  25.0554	 799.200	    7
  25.0558	 799.220	    7
  25.0561	 799.239	    7
  25.0565	 799.259	    7
  25.0569	 799.278	    7
  25.0572	 799.298	    7
  25.0576	 799.318	    7
  25.0580	 799.337	    7
  25.0583	 799.357	    7
  25.0587	 799.376	    7
  25.0591	 799.396	    7
  25.0595	 799.415	    7
  25.0598	 799.435	    7
  25.0602	 799.455	    7
  25.0606	 799.474	    7
  25.0609	 799.494	    7
  25.0613	 799.513	    7
  25.0617	 799.533	    7
  25.0620	 799.552	    7
  25.0624	 799.572	    7
  25.0628	 799.591	    7
  25.0632	 799.611	    7
  25.0635	 799.631	    7
  25.0639	 799.650	    7
  25.0643	 799.670	    7
  25.0646	 799.689	    7
  25.0650	 799.709	    7
  25.0654	 799.728	    7
  25.0657	 799.748	    7
  25.0661	 799.768	    7
  25.0665	 799.787	    7
  25.0669	 799.807	    7
  25.0672	 799.826	    7
  25.0676	 799.846	    7
  25.0680	 799.865	    7
  25.0683	 799.885	    7
  25.0687	 799.905	    7
  25.0691	 799.924	    7
  25.0694	 799.944	    6
  25.0698	 799.963	    7
  25.0702	 799.983	    7
  25.0705	 800.002	    7
  25.0709	 800.022	    7
  25.0713	 800.041	    7
  25.0717	 800.061	    7
  25.0720	 800.081	    7
  25.0724	 800.100	    7
  25.0728	 800.120	    7
  25.0731	 800.139	    7
  25.0735	 800.159	    7
  25.0739	 800.178	    6
  25.0742	 800.198	    7
  25.0746	 800.218	    6
  25.0750	 800.237	    7
  25.0754	 800.257	    7
  25.0757	 800.276	    7
  25.0761	 800.296	    6
  25.0765	 800.315	    7
  25.0768	 800.335	    6
  25.0772	 800.355	    7
  25.0776	 800.374	    6
  25.0779	 800.394	    7
  25.0783	 800.413	    7
  25.0787	 800.433	    7
  25.0791	 800.452	    6
  25.0794	 800.472	    7
  25.0798	 800.492	    6
  25.0802	 800.511	    7
  25.0805	 800.531	    6
  25.0809	 800.550	    7
  25.0813	 800.570	    6
  25.0816	 800.589	    7
  25.0820	 800.609	    6
  25.0824	 800.628	    7
  25.0828	 800.648	    6
  25.0831	 800.668	    7
  25.0835	 800.687	    6
  25.0839	 800.707	    7
  25.0842	 800.726	    7
  25.0846	 800.746	    7
  25.0850	 800.765	    7
  25.0853	 800.785	    7
  25.0857	 800.805	    6
  25.0861	 800.824	    7
  25.0865	 800.844	    6
  25.0868	 800.863	    7
  25.0872	 800.883	    6
  25.0876	 800.902	    7
  25.0879	 800.922	    6
  25.0883	 800.942	    7
  25.0887	 800.961	    7
  25.0890	 800.981	    7
  25.0894	 801.000	    7
  25.0898	 801.020	    7
  25.0902	 801.039	    7
  25.0905	 801.059	    7
  25.0909	 801.078	    7
  25.0913	 801.098	    7
  25.0916	 801.118	    7
  25.0920	 801.137	    7
  25.0924	 801.157	    7
  25.0927	 801.176	    7
  25.0931	 801.196	    7
  25.0935	 801.215	    7
  25.0938	 801.235	    7
  25.0942	 801.255	    7
  25.0946	 801.274	    7
  25.0950	 801.294	    7
  25.0953	 801.313	    7
  25.0957	 801.333	    7
  25.0961	 801.352	    7
  25.0964	 801.372	    7
  25.0968	 801.392	    7
  25.0972	 801.411	    7
  25.0975	 801.431	    7
  25.0979	 801.450	    7
  25.0983	 801.470	    7
  25.0987	 801.489	    7
  25.0990	 801.509	    7
  25.0994	 801.529	    7
  25.0998	 801.548	    7
  25.1001	 801.568	    7
  25.1005	 801.587	    7
  25.1009	 801.607	    7
  25.1012	 801.626	    7
  25.1016	 801.646	    7
  25.1020	 801.665	    7
  25.1024	 801.685	    7
  25.1027	 801.705	    7
  25.1031	 801.724	    7
  25.1035	 801.744	    7
  25.1038	 801.763	    7
  25.1042	 801.783	    7
  25.1046	 801.802	    7
  25.1049	 801.822	    7
  25.1053	 801.842	    7
  25.1057	 801.861	    7
  25.1061	 801.881	    7
  25.1064	 801.900	    7
  25.1068	 801.920	    7
  25.1072	 801.939	    7
  25.1075	 801.959	    7
  25.1079	 801.979	    7
  25.1083	 801.998	    8
  25.1086	 802.018	    7
  25.1090	 802.037	    8
  25.1094	 802.057	    7
  25.1098	 802.076	    8
  25.1101	 802.096	    8
  25.1105	 802.115	    8
  25.1109	 802.135	    8
  25.1112	 802.155	    8
  25.1116	 802.174	    8
  25.1120	 802.194	    8
  25.1123	 802.213	    8
  25.1127	 802.233	    8
  25.1131	 802.252	    8
  25.1135	 802.272	    8
  25.1138	 802.292	    8
  25.1142	 802.311	    8
  25.1146	 802.331	    8
  25.1149	 802.350	    8
  25.1153	 802.370	    8
  25.1157	 802.389	    8
  25.1160	 802.409	    8
  25.1164	 802.429	    8
  25.1168	 802.448	    8
  25.1171	 802.468	    9
  25.1175	 802.487	    8
  25.1179	 802.507	    9
  25.1183	 802.526	    8
  25.1186	 802.546	    9
  25.1190	 802.566	    8
  25.1194	 802.585	    9
  25.1197	 802.605	    8
  25.1201	 802.624	    9
  25.1205	 802.644	    9
  25.1208	 802.663	    9
  25.1212	 802.683	    9
  25.1216	 802.702	    9
  25.1220	 802.722	    9
  25.1223	 802.742	    9
  25.1227	 802.761	    9
  25.1231	 802.781	    9
  25.1234	 802.800	    9
  25.1238	 802.820	    9
  25.1242	 802.839	    9
  25.1245	 802.859	    9
  25.1249	 802.879	    9
  25.1253	 802.898	    9
  25.1257	 802.918	    9
  25.1260	 802.937	    9
  25.1264	 802.957	    9
  25.1268	 802.976	    9
  25.1271	 802.996	    9
  25.1275	 803.016	    9
  25.1279	 803.035	    9
  25.1282	 803.055	    9
  25.1286	 803.074	    8
  25.1290	 803.094	    9
  25.1294	 803.113	    9
  25.1297	 803.133	    9
  25.1301	 803.152	    8
  25.1305	 803.172	    9
  25.1308	 803.192	    8
  25.1312	 803.211	    9
  25.1316	 803.231	    8
  25.1319	 803.250	    8
  25.1323	 803.270	    8
  25.1327	 803.289	    8
  25.1331	 803.309	    8
  25.1334	 803.329	    8
  25.1338	 803.348	    8
  25.1342	 803.368	    8
  25.1345	 803.387	    8
  25.1349	 803.407	    8
  25.1353	 803.426	    8
  25.1356	 803.446	    8
  25.1360	 803.466	    8
  25.1364	 803.485	    8
  25.1368	 803.505	    8
  25.1371	 803.524	    8
  25.1375	 803.544	    8
  25.1379	 803.563	    8
  25.1382	 803.583	    8
  25.1386	 803.603	    8
  25.1390	 803.622	    7
  25.1393	 803.642	    8
  25.1397	 803.661	    7
  25.1401	 803.681	    8
  25.1404	 803.700	    7
  25.1408	 803.720	    8
  25.1412	 803.739	    7
  25.1416	 803.759	    8
  25.1419	 803.779	    7
  25.1423	 803.798	    7
  25.1427	 803.818	    7
  25.1430	 803.837	    7
  25.1434	 803.857	    7
  25.1438	 803.876	    7
  25.1441	 803.896	    7
  25.1445	 803.916	    7
  25.1449	 803.935	    7
  25.1453	 803.955	    7
  25.1456	 803.974	    7
  25.1460	 803.994	    7
  25.1464	 804.013	    7
  25.1467	 804.033	    7
  25.1471	 804.053	    7
  25.1475	 804.072	    7
  25.1478	 804.092	    6
  25.1482	 804.111	    7
  25.1486	 804.131	    6
  25.1490	 804.150	    7
  25.1493	 804.170	    6
  25.1497	 804.189	    7
  25.1501	 804.209	    6
  25.1504	 804.229	    6
  25.1508	 804.248	    6
  25.1512	 804.268	    6
  25.1515	 804.287	    6
  25.1519	 804.307	    6
  25.1523	 804.326	    6
  25.1527	 804.346	    6
  25.1530	 804.366	    6
  25.1534	 804.385	    6
  25.1538	 804.405	    6
  25.1541	 804.424	    6
  25.1545	 804.444	    6
  25.1549	 804.463	    6
  25.1552	 804.483	    6
  25.1556	 804.503	    6
  25.1560	 804.522	    6
  25.1564	 804.542	    6
  25.1567	 804.561	    6
  25.1571	 804.581	    6
  25.1575	 804.600	    6
  25.1578	 804.620	    6
  25.1582	 804.639	    6
  25.1586	 804.659	    6
  25.1589	 804.679	    6
  25.1593	 804.698	    6
  25.1597	 804.718	    6
  25.1601	 804.737	    6
  25.1604	 804.757	    6
  25.1608	 804.776	    6
  25.1612	 804.796	    6
  25.1615	 804.816	    6
  25.1619	 804.835	    6
  25.1623	 804.855	    6
  25.1626	 804.874	    6
  25.1630	 804.894	    6
  25.1634	 804.913	    6
  25.1637	 804.933	    6
  25.1641	 804.953	    6
  25.1645	 804.972	    6
  25.1649	 804.992	    6
  25.1652	 805.011	    6
  25.1656	 805.031	    6
  25.1660	 805.050	    6
  25.1663	 805.070	    6
  25.1667	 805.090	    6
  25.1671	 805.109	    6
  25.1674	 805.129	    6
  25.1678	 805.148	    6
  25.1682	 805.168	    6
  25.1686	 805.187	    6
  25.1689	 805.207	    6
  25.1693	 805.226	    6
  25.1697	 805.246	    6
  25.1700	 805.266	    6
  25.1704	 805.285	    6
  25.1708	 805.305	    6
  25.1711	 805.324	    6
  25.1715	 805.344	    6
  25.1719	 805.363	    6
  25.1723	 805.383	    6
  25.1726	 805.403	    6
  25.1730	 805.422	    6
  25.1734	 805.442	    6
  25.1737	 805.461	    6
  25.1741	 805.481	    6
  25.1745	 805.500	    6
  25.1748	 805.520	    6
  25.1752	 805.540	    6
  25.1756	 805.559	    6
  25.1760	 805.579	    6
  25.1763	 805.598	    6
  25.1767	 805.618	    6
  25.1771	 805.637	    6
  25.1774	 805.657	    6
  25.1778	 805.676	    6
  25.1782	 805.696	    6
  25.1785	 805.716	    6
  25.1789	 805.735	    6
  25.1793	 805.755	    6
  25.1797	 805.774	    6
  25.1800	 805.794	    6
  25.1804	 805.813	    6
  25.1808	 805.833	    6
  25.1811	 805.853	    6
  25.1815	 805.872	    6
  25.1819	 805.892	    6
  25.1822	 805.911	    6
  25.1826	 805.931	    6
  25.1830	 805.950	    6
  25.1834	 805.970	    6
  25.1837	 805.990	    6
  25.1841	 806.009	    6
  25.1845	 806.029	    6
  25.1848	 806.048	    6
  25.1852	 806.068	    6
  25.1856	 806.087	    6
  25.1859	 806.107	    6
  25.1863	 806.127	    6
  25.1867	 806.146	    6
  25.1870	 806.166	    6
  25.1874	 806.185	    6
  25.1878	 806.205	    6
  25.1882	 806.224	    6
  25.1885	 806.244	    6
  25.1889	 806.263	    6
  25.1893	 806.283	    6
  25.1896	 806.303	    6
  25.1900	 806.322	    6
  25.1904	 806.342	    6
  25.1907	 806.361	    6
  25.1911	 806.381	    6
  25.1915	 806.400	    6
  25.1919	 806.420	    6
  25.1922	 806.440	    6
  25.1926	 806.459	    6
  25.1930	 806.479	    6
  25.1933	 806.498	    6
  25.1937	 806.518	    6
  25.1941	 806.537	    6
  25.1944	 806.557	    6
  25.1948	 806.577	    6
  25.1952	 806.596	    6
  25.1956	 806.616	    6
  25.1959	 806.635	    6
  25.1963	 806.655	    6
  25.1967	 806.674	    6
  25.1970	 806.694	    6
  25.1974	 806.713	    6
  25.1978	 806.733	    6
  25.1981	 806.753	    6
  25.1985	 806.772	    6
  25.1989	 806.792	    6
  25.1993	 806.811	    6
  25.1996	 806.831	    6
  25.2000	 806.850	    6
  25.2004	 806.870	    6
  25.2007	 806.890	    6
  25.2011	 806.909	    6
  25.2015	 806.929	    6
  25.2018	 806.948	    6
  25.2022	 806.968	    6
  25.2026	 806.987	    6
  25.2030	 807.007	    6
  25.2033	 807.027	    6
  25.2037	 807.046	    6
  25.2041	 807.066	    6
  25.2044	 807.085	    6
  25.2048	 807.105	    6
  25.2052	 807.124	    6
  25.2055	 807.144	    6
  25.2059	 807.164	    6
  25.2063	 807.183	    6
  25.2067	 807.203	    6
  25.2070	 807.222	    6
  25.2074	 807.242	    6
  25.2078	 807.261	    6
  25.2081	 807.281	    6
  25.2085	 807.300	    6
  25.2089	 807.320	    6
  25.2092	 807.340	    6
  25.2096	 807.359	    6
  25.2100	 807.379	    6
  25.2103	 807.398	    6
  25.2107	 807.418	    6
  25.2111	 807.437	    6
  25.2115	 807.457	    6
  25.2118	 807.477	    6
  25.2122	 807.496	    6
  25.2126	 807.516	    6
  25.2129	 807.535	    6
  25.2133	 807.555	    6
  25.2137	 807.574	    6
  25.2140	 807.594	    6
  25.2144	 807.614	    6
  25.2148	 807.633	    6
  25.2152	 807.653	    6
  25.2155	 807.672	    6
  25.2159	 807.692	    6
  25.2163	 807.711	    6
  25.2166	 807.731	    6
  25.2170	 807.750	    6
  25.2174	 807.770	    6
  25.2177	 807.790	    6
  25.2181	 807.809	    6
  25.2185	 807.829	    6
  25.2189	 807.848	    6
  25.2192	 807.868	    6
  25.2196	 807.887	    6
  25.2200	 807.907	    6
  25.2203	 807.927	    6
  25.2207	 807.946	    6
  25.2211	 807.966	    6
  25.2214	 807.985	    6
  25.2218	 808.005	    6
  25.2222	 808.024	    6
  25.2226	 808.044	    6
  25.2229	 808.064	    6
  25.2233	 808.083	    6
  25.2237	 808.103	    6
  25.2240	 808.122	    6
  25.2244	 808.142	    6
  25.2248	 808.161	    6
  25.2251	 808.181	    6
  25.2255	 808.201	    6
  25.2259	 808.220	    6
  25.2263	 808.240	    6
  25.2266	 808.259	    6
  25.2270	 808.279	    6
  25.2274	 808.298	    6
  25.2277	 808.318	    6
  25.2281	 808.337	    6
  25.2285	 808.357	    6
  25.2288	 808.377	    6
  25.2292	 808.396	    6
  25.2296	 808.416	    6
  25.2300	 808.435	    6
  25.2303	 808.455	    6
  25.2307	 808.474	    6
  25.2311	 808.494	    6
  25.2314	 808.514	    6
  25.2318	 808.533	    6
  25.2322	 808.553	    6
  25.2325	 808.572	    6
  25.2329	 808.592	    6
  25.2333	 808.611	    6
  25.2336	 808.631	    6
  25.2340	 808.651	    6
  25.2344	 808.670	    6
  25.2348	 808.690	    6
  25.2351	 808.709	    6
  25.2355	 808.729	    6
  25.2359	 808.748	    6
  25.2362	 808.768	    6
  25.2366	 808.787	    6
  25.2370	 808.807	    6
  25.2373	 808.827	    6
  25.2377	 808.846	    6
  25.2381	 808.866	    6
  25.2385	 808.885	    6
  25.2388	 808.905	    6
  25.2392	 808.924	    6
  25.2396	 808.944	    6
  25.2399	 808.964	    6
  25.2403	 808.983	    6
  25.2407	 809.003	    6
  25.2410	 809.022	    6
  25.2414	 809.042	    6
  25.2418	 809.061	    6
  25.2422	 809.081	    6
  25.2425	 809.101	    6
  25.2429	 809.120	    6
  25.2433	 809.140	    6
  25.2436	 809.159	    6
  25.2440	 809.179	    6
  25.2444	 809.198	    6
  25.2447	 809.218	    6
  25.2451	 809.238	    6
  25.2455	 809.257	    6
  25.2459	 809.277	    6
  25.2462	 809.296	    6
  25.2466	 809.316	    6
  25.2470	 809.335	    6
  25.2473	 809.355	    6
  25.2477	 809.374	    6
  25.2481	 809.394	    6
  25.2484	 809.414	    6
  25.2488	 809.433	    6
  25.2492	 809.453	    6
  25.2496	 809.472	    6
  25.2499	 809.492	    6
  25.2503	 809.511	    6
  25.2507	 809.531	    6
  25.2510	 809.551	    6
  25.2514	 809.570	    6
  25.2518	 809.590	    6
  25.2521	 809.609	    6
  25.2525	 809.629	    6
  25.2529	 809.648	    6
  25.2533	 809.668	    6
  25.2536	 809.688	    6
  25.2540	 809.707	    6
  25.2544	 809.727	    6
  25.2547	 809.746	    6
  25.2551	 809.766	    6
  25.2555	 809.785	    6
  25.2558	 809.805	    6
  25.2562	 809.824	    6
  25.2566	 809.844	    6
  25.2569	 809.864	    6
  25.2573	 809.883	    6
  25.2577	 809.903	    6
  25.2581	 809.922	    6
  25.2584	 809.942	    6
  25.2588	 809.961	    6
  25.2592	 809.981	    6
  25.2595	 810.001	    6
  25.2599	 810.020	    6
  25.2603	 810.040	    6
  25.2606	 810.059	    6
  25.2610	 810.079	    6
  25.2614	 810.098	    6
  25.2618	 810.118	    6
  25.2621	 810.138	    6
  25.2625	 810.157	    6
  25.2629	 810.177	    6
  25.2632	 810.196	    6
  25.2636	 810.216	    6
  25.2640	 810.235	    6
  25.2643	 810.255	    6
  25.2647	 810.274	    6
  25.2651	 810.294	    6
  25.2655	 810.314	    6
  25.2658	 810.333	    6
  25.2662	 810.353	    6
  25.2666	 810.372	    6
  25.2669	 810.392	    6
  25.2673	 810.411	    6
  25.2677	 810.431	    6
  25.2680	 810.451	    6
  25.2684	 810.470	    6
  25.2688	 810.490	    6
  25.2692	 810.509	    6
  25.2695	 810.529	    6
  25.2699	 810.548	    6
  25.2703	 810.568	    6
  25.2706	 810.588	    6
  25.2710	 810.607	    6
  25.2714	 810.627	    6
  25.2717	 810.646	    6
  25.2721	 810.666	    6
  25.2725	 810.685	    6
  25.2729	 810.705	    6
  25.2732	 810.725	    6
  25.2736	 810.744	    6
  25.2740	 810.764	    6
  25.2743	 810.783	    6
  25.2747	 810.803	    6
  25.2751	 810.822	    6
  25.2754	 810.842	    6
  25.2758	 810.861	    6
  25.2762	 810.881	    6
  25.2766	 810.901	    6
  25.2769	 810.920	    6
  25.2773	 810.940	    6
  25.2777	 810.959	    6
  25.2780	 810.979	    6
  25.2784	 810.998	    6
  25.2788	 811.018	    6
  25.2791	 811.038	    6
  25.2795	 811.057	    6
  25.2799	 811.077	    6
  25.2802	 811.096	    6
  25.2806	 811.116	    6
  25.2810	 811.135	    6
  25.2814	 811.155	    6
  25.2817	 811.175	    6
  25.2821	 811.194	    6
  25.2825	 811.214	    6
  25.2828	 811.233	    6
  25.2832	 811.253	    6
  25.2836	 811.272	    6
  25.2839	 811.292	    6
  25.2843	 811.311	    6
  25.2847	 811.331	    6
  25.2851	 811.351	    6
  25.2854	 811.370	    6
  25.2858	 811.390	    6
  25.2862	 811.409	    6
  25.2865	 811.429	    6
  25.2869	 811.448	    6
  25.2873	 811.468	    6
  25.2876	 811.488	    6
  25.2880	 811.507	    6
  25.2884	 811.527	    6
  25.2888	 811.546	    6
  25.2891	 811.566	    6
  25.2895	 811.585	    6
  25.2899	 811.605	    6
  25.2902	 811.625	    6
  25.2906	 811.644	    6
  25.2910	 811.664	    6
  25.2913	 811.683	    6
  25.2917	 811.703	    6
  25.2921	 811.722	    6
  25.2925	 811.742	    6
  25.2928	 811.762	    6
  25.2932	 811.781	    6
  25.2936	 811.801	    6
  25.2939	 811.820	    6
  25.2943	 811.840	    6
  25.2947	 811.859	    6
  25.2950	 811.879	    6
  25.2954	 811.898	    6
  25.2958	 811.918	    6
  25.2962	 811.938	    6
  25.2965	 811.957	    6
  25.2969	 811.977	    6
  25.2973	 811.996	    6
  25.2976	 812.016	    6
  25.2980	 812.035	    6
  25.2984	 812.055	    6
  25.2987	 812.075	    6
  25.2991	 812.094	    6
  25.2995	 812.114	    6
  25.2998	 812.133	    6
  25.3002	 812.153	    6
  25.3006	 812.172	    6
  25.3010	 812.192	    6
  25.3013	 812.212	    6
  25.3017	 812.231	    6
  25.3021	 812.251	    6
  25.3024	 812.270	    6
  25.3028	 812.290	    6
  25.3032	 812.309	    6
  25.3035	 812.329	    6
  25.3039	 812.348	    6
  25.3043	 812.368	    6
  25.3047	 812.388	    6
  25.3050	 812.407	    6
  25.3054	 812.427	    6
  25.3058	 812.446	    6
  25.3061	 812.466	    5
  25.3065	 812.485	    6
  25.3069	 812.505	    6
  25.3072	 812.525	    6
  25.3076	 812.544	    6
  25.3080	 812.564	    6
  25.3084	 812.583	    6
  25.3087	 812.603	    6
  25.3091	 812.622	    6
  25.3095	 812.642	    6
  25.3098	 812.662	    6
  25.3102	 812.681	    6
  25.3106	 812.701	    6
  25.3109	 812.720	    6
  25.3113	 812.740	    6
  25.3117	 812.759	    6
  25.3121	 812.779	    6
  25.3124	 812.799	    6
  25.3128	 812.818	    6
  25.3132	 812.838	    6
  25.3135	 812.857	    6
  25.3139	 812.877	    6
  25.3143	 812.896	    6
  25.3146	 812.916	    6
  25.3150	 812.935	    5
  25.3154	 812.955	    6
  25.3158	 812.975	    6
  25.3161	 812.994	    6
  25.3165	 813.014	    6
  25.3169	 813.033	    6
  25.3172	 813.053	    6
  25.3176	 813.072	    6
  25.3180	 813.092	    6
  25.3183	 813.112	    6
  25.3187	 813.131	    6
  25.3191	 813.151	    6
  25.3195	 813.170	    6
  25.3198	 813.190	    6
  25.3202	 813.209	    6
  25.3206	 813.229	    6
  25.3209	 813.249	    6
  25.3213	 813.268	    6
  25.3217	 813.288	    6
  25.3220	 813.307	    6
  25.3224	 813.327	    6
  25.3228	 813.346	    6
  25.3231	 813.366	    6
  25.3235	 813.385	    6
  25.3239	 813.405	    6
  25.3243	 813.425	    6
  25.3246	 813.444	    5
  25.3250	 813.464	    6
  25.3254	 813.483	    6
  25.3257	 813.503	    6
  25.3261	 813.522	    6
  25.3265	 813.542	    6
  25.3268	 813.562	    6
  25.3272	 813.581	    6
  25.3276	 813.601	    6
  25.3280	 813.620	    6
  25.3283	 813.640	    6
  25.3287	 813.659	    6
  25.3291	 813.679	    6
  25.3294	 813.699	    6
  25.3298	 813.718	    6
  25.3302	 813.738	    6
  25.3305	 813.757	    6
  25.3309	 813.777	    6
  25.3313	 813.796	    5
  25.3317	 813.816	    6
  25.3320	 813.836	    5
  25.3324	 813.855	    6
  25.3328	 813.875	    6
  25.3331	 813.894	    6
  25.3335	 813.914	    6
  25.3339	 813.933	    6
  25.3342	 813.953	    6
  25.3346	 813.972	    6
  25.3350	 813.992	    6
  25.3354	 814.012	    6
  25.3357	 814.031	    6
  25.3361	 814.051	    6
  25.3365	 814.070	    6
  25.3368	 814.090	    6
  25.3372	 814.109	    6
  25.3376	 814.129	    6
  25.3379	 814.149	    6
  25.3383	 814.168	    6
  25.3387	 814.188	    6
  25.3391	 814.207	    6
  25.3394	 814.227	    5
  25.3398	 814.246	    6
  25.3402	 814.266	    6
  25.3405	 814.286	    6
  25.3409	 814.305	    6
  25.3413	 814.325	    6
  25.3416	 814.344	    6
  25.3420	 814.364	    6
  25.3424	 814.383	    6
  25.3428	 814.403	    6
  25.3431	 814.422	    6
  25.3435	 814.442	    6
  25.3439	 814.462	    6
  25.3442	 814.481	    6
  25.3446	 814.501	    6
  25.3450	 814.520	    6
  25.3453	 814.540	    6
  25.3457	 814.559	    6
  25.3461	 814.579	    6
  25.3464	 814.599	    6
  25.3468	 814.618	    6
  25.3472	 814.638	    6
  25.3476	 814.657	    6
  25.3479	 814.677	    6
  25.3483	 814.696	    5
  25.3487	 814.716	    6
  25.3490	 814.736	    6
  25.3494	 814.755	    6
  25.3498	 814.775	    6
  25.3501	 814.794	    6
  25.3505	 814.814	    6
  25.3509	 814.833	    6
  25.3513	 814.853	    6
  25.3516	 814.872	    6
  25.3520	 814.892	    6
  25.3524	 814.912	    6
  25.3527	 814.931	    6
  25.3531	 814.951	    6
  25.3535	 814.970	    6
  25.3538	 814.990	    6
  25.3542	 815.009	    5
  25.3546	 815.029	    6
  25.3550	 815.049	    6
  25.3553	 815.068	    6
  25.3557	 815.088	    6
  25.3561	 815.107	    6
  25.3564	 815.127	    6
  25.3568	 815.146	    6
  25.3572	 815.166	    6
  25.3575	 815.186	    6
  25.3579	 815.205	    5
  25.3583	 815.225	    6
  25.3587	 815.244	    6
  25.3590	 815.264	    6
  25.3594	 815.283	    6
  25.3598	 815.303	    6
  25.3601	 815.323	    6
  25.3605	 815.342	    6
  25.3609	 815.362	    6
  25.3612	 815.381	    6
  25.3616	 815.401	    5
  25.3620	 815.420	    6
  25.3624	 815.440	    6
  25.3627	 815.459	    6
  25.3631	 815.479	    6
  25.3635	 815.499	    6
  25.3638	 815.518	    5
  25.3642	 815.538	    6
  25.3646	 815.557	    5
  25.3649	 815.577	    6
  25.3653	 815.596	    5
  25.3657	 815.616	    6
  25.3661	 815.636	    5
  25.3664	 815.655	    6
  25.3668	 815.675	    5
  25.3672	 815.694	    6
  25.3675	 815.714	    6
  25.3679	 815.733	    6
  25.3683	 815.753	    6
  25.3686	 815.773	    6
  25.3690	 815.792	    6
  25.3694	 815.812	    6
  25.3697	 815.831	    6
  25.3701	 815.851	    6
  25.3705	 815.870	    6
  25.3709	 815.890	    6
  25.3712	 815.909	    6
  25.3716	 815.929	    6
  25.3720	 815.949	    6
  25.3723	 815.968	    6
  25.3727	 815.988	    6
  25.3731	 816.007	    6
  25.3734	 816.027	    5
  25.3738	 816.046	    6
  25.3742	 816.066	    5
  25.3746	 816.086	    6
  25.3749	 816.105	    6
  25.3753	 816.125	    6
  25.3757	 816.144	    6
  25.3760	 816.164	    6
  25.3764	 816.183	    6
  25.3768	 816.203	    6
  25.3771	 816.223	    6
  25.3775	 816.242	    6
  25.3779	 816.262	    6
  25.3783	 816.281	    6
  25.3786	 816.301	    5
  25.3790	 816.320	    6
  25.3794	 816.340	    5
  25.3797	 816.360	    6
  25.3801	 816.379	    6
  25.3805	 816.399	    6
  25.3808	 816.418	    6
  25.3812	 816.438	    6
  25.3816	 816.457	    6
  25.3820	 816.477	    6
  25.3823	 816.496	    5
  25.3827	 816.516	    6
  25.3831	 816.536	    5
  25.3834	 816.555	    6
  25.3838	 816.575	    6
  25.3842	 816.594	    6
  25.3845	 816.614	    6
  25.3849	 816.633	    6
  25.3853	 816.653	    5
  25.3857	 816.673	    6
  25.3860	 816.692	    5
  25.3864	 816.712	    6
  25.3868	 816.731	    6
  25.3871	 816.751	    6
  25.3875	 816.770	    5
  25.3879	 816.790	    6
  25.3882	 816.810	    5
  25.3886	 816.829	    6
  25.3890	 816.849	    5
  25.3894	 816.868	    6
  25.3897	 816.888	    5
  25.3901	 816.907	    6
  25.3905	 816.927	    5
  25.3908	 816.946	    6
  25.3912	 816.966	    5
  25.3916	 816.986	    6
  25.3919	 817.005	    5
  25.3923	 817.025	    6
  25.3927	 817.044	    5
  25.3930	 817.064	    6
  25.3934	 817.083	    5
  25.3938	 817.103	    6
  25.3942	 817.123	    6
  25.3945	 817.142	    6
  25.3949	 817.162	    6
  25.3953	 817.181	    6
  25.3956	 817.201	    6
  25.3960	 817.220	    6
  25.3964	 817.240	    6
  25.3967	 817.260	    6
  25.3971	 817.279	    6
  25.3975	 817.299	    6
  25.3979	 817.318	    6
  25.3982	 817.338	    6
  25.3986	 817.357	    6
  25.3990	 817.377	    6
  25.3993	 817.397	    5
  25.3997	 817.416	    6
  25.4001	 817.436	    5
  25.4004	 817.455	    6
  25.4008	 817.475	    6
  25.4012	 817.494	    6
  25.4016	 817.514	    6
  25.4019	 817.533	    6
  25.4023	 817.553	    6
  25.4027	 817.573	    6
  25.4030	 817.592	    5
  25.4034	 817.612	    6
  25.4038	 817.631	    6
  25.4041	 817.651	    6
  25.4045	 817.670	    6
  25.4049	 817.690	    6
  25.4053	 817.710	    6
  25.4056	 817.729	    6
  25.4060	 817.749	    6
  25.4064	 817.768	    6
  25.4067	 817.788	    5
  25.4071	 817.807	    6
  25.4075	 817.827	    6
  25.4078	 817.847	    6
  25.4082	 817.866	    6
  25.4086	 817.886	    6
  25.4090	 817.905	    6
  25.4093	 817.925	    6
  25.4097	 817.944	    6
  25.4101	 817.964	    6
  25.4104	 817.983	    6
  25.4108	 818.003	    6
  25.4112	 818.023	    6
  25.4115	 818.042	    6
  25.4119	 818.062	    6
  25.4123	 818.081	    6
  25.4127	 818.101	    5
  25.4130	 818.120	    6
  25.4134	 818.140	    6
  25.4138	 818.160	    6
  25.4141	 818.179	    6
  25.4145	 818.199	    6
  25.4149	 818.218	    6
  25.4152	 818.238	    6
  25.4156	 818.257	    5
  25.4160	 818.277	    6
  25.4163	 818.297	    5
  25.4167	 818.316	    6
  25.4171	 818.336	    6
  25.4175	 818.355	    6
  25.4178	 818.375	    6
  25.4182	 818.394	    6
  25.4186	 818.414	    6
  25.4189	 818.434	    6
  25.4193	 818.453	    6
  25.4197	 818.473	    6
  25.4200	 818.492	    6
  25.4204	 818.512	    6
  25.4208	 818.531	    6
  25.4212	 818.551	    6
  25.4215	 818.570	    6
  25.4219	 818.590	    6
  25.4223	 818.610	    5
  25.4226	 818.629	    6
  25.4230	 818.649	    5
  25.4234	 818.668	    6
  25.4237	 818.688	    5
  25.4241	 818.707	    6
  25.4245	 818.727	    5
  25.4249	 818.747	    6
  25.4252	 818.766	    6
  25.4256	 818.786	    6
  25.4260	 818.805	    6
  25.4263	 818.825	    6
  25.4267	 818.844	    6
  25.4271	 818.864	    6
  25.4274	 818.884	    6
  25.4278	 818.903	    6
  25.4282	 818.923	    6
  25.4286	 818.942	    6
  25.4289	 818.962	    6
  25.4293	 818.981	    6
  25.4297	 819.001	    6
  25.4300	 819.020	    6
  25.4304	 819.040	    6
  25.4308	 819.060	    6
  25.4311	 819.079	    6
  25.4315	 819.099	    6
  25.4319	 819.118	    6
  25.4323	 819.138	    6
  25.4326	 819.157	    5
  25.4330	 819.177	    6
  25.4334	 819.197	    5
  25.4337	 819.216	    6
  25.4341	 819.236	    5
  25.4345	 819.255	    6
  25.4348	 819.275	    5
  25.4352	 819.294	    6
  25.4356	 819.314	    5
  25.4360	 819.334	    6
  25.4363	 819.353	    6
  25.4367	 819.373	    6
  25.4371	 819.392	    5
  25.4374	 819.412	    6
  25.4378	 819.431	    6
  25.4382	 819.451	    6
  25.4385	 819.470	    5
  25.4389	 819.490	    6
  25.4393	 819.510	    5
  25.4396	 819.529	    6
  25.4400	 819.549	    5
  25.4404	 819.568	    6
  25.4408	 819.588	    6
  25.4411	 819.607	    6
  25.4415	 819.627	    6
  25.4419	 819.647	    6
  25.4422	 819.666	    5
  25.4426	 819.686	    6
  25.4430	 819.705	    6
  25.4433	 819.725	    6
  25.4437	 819.744	    6
  25.4441	 819.764	    6
  25.4445	 819.784	    6
  25.4448	 819.803	    6
  25.4452	 819.823	    6
  25.4456	 819.842	    6
  25.4459	 819.862	    5
  25.4463	 819.881	    6
  25.4467	 819.901	    5
  25.4470	 819.921	    6
  25.4474	 819.940	    6
  25.4478	 819.960	    6
  25.4482	 819.979	    6
  25.4485	 819.999	    6
  25.4489	 820.018	    5
  25.4493	 820.038	    6
  25.4496	 820.057	    6
  25.4500	 820.077	    6
  25.4504	 820.097	    6
  25.4507	 820.116	    6
  25.4511	 820.136	    6
  25.4515	 820.155	    6
  25.4519	 820.175	    5
  25.4522	 820.194	    6
  25.4526	 820.214	    5
  25.4530	 820.234	    6
  25.4533	 820.253	    5
  25.4537	 820.273	    6
  25.4541	 820.292	    6
  25.4544	 820.312	    6
  25.4548	 820.331	    5
  25.4552	 820.351	    6
  25.4556	 820.371	    5
  25.4559	 820.390	    6
  25.4563	 820.410	    5
  25.4567	 820.429	    6
  25.4570	 820.449	    5
  25.4574	 820.468	    6
  25.4578	 820.488	    6
  25.4581	 820.507	    6
  25.4585	 820.527	    5
  25.4589	 820.547	    6
  25.4593	 820.566	    5
  25.4596	 820.586	    6
  25.4600	 820.605	    5
  25.4604	 820.625	    6
  25.4607	 820.644	    5
  25.4611	 820.664	    6
  25.4615	 820.684	    5
  25.4618	 820.703	    6
  25.4622	 820.723	    5
  25.4626	 820.742	    6
  25.4629	 820.762	    5
  25.4633	 820.781	    6
  25.4637	 820.801	    5
  25.4641	 820.821	    6
  25.4644	 820.840	    5
  25.4648	 820.860	    6
  25.4652	 820.879	    5
  25.4655	 820.899	    6
  25.4659	 820.918	    6
  25.4663	 820.938	    6
  25.4666	 820.958	    6
  25.4670	 820.977	    6
  25.4674	 820.997	    5
  25.4678	 821.016	    6
  25.4681	 821.036	    5
  25.4685	 821.055	    6
  25.4689	 821.075	    5
  25.4692	 821.094	    6
  25.4696	 821.114	    5
  25.4700	 821.134	    6
  25.4703	 821.153	    5
  25.4707	 821.173	    6
  25.4711	 821.192	    5
  25.4715	 821.212	    6
  25.4718	 821.231	    5
  25.4722	 821.251	    6
  25.4726	 821.271	    5
  25.4729	 821.290	    6
  25.4733	 821.310	    6
  25.4737	 821.329	    6
  25.4740	 821.349	    6
  25.4744	 821.368	    6
  25.4748	 821.388	    5
  25.4752	 821.408	    6
  25.4755	 821.427	    5
  25.4759	 821.447	    6
  25.4763	 821.466	    6
  25.4766	 821.486	    6
  25.4770	 821.505	    6
  25.4774	 821.525	    6
  25.4777	 821.544	    6
  25.4781	 821.564	    6
  25.4785	 821.584	    5
  25.4789	 821.603	    6
  25.4792	 821.623	    5
  25.4796	 821.642	    6
  25.4800	 821.662	    5
  25.4803	 821.681	    6
  25.4807	 821.701	    5
  25.4811	 821.721	    6
  25.4814	 821.740	    6
  25.4818	 821.760	    6
  25.4822	 821.779	    6
  25.4826	 821.799	    6
  25.4829	 821.818	    5
  25.4833	 821.838	    6
  25.4837	 821.858	    5
  25.4840	 821.877	    6
  25.4844	 821.897	    5
  25.4848	 821.916	    6
  25.4851	 821.936	    5
  25.4855	 821.955	    6
  25.4859	 821.975	    5
  25.4862	 821.995	    6
  25.4866	 822.014	    5
  25.4870	 822.034	    6
  25.4874	 822.053	    5
  25.4877	 822.073	    6
  25.4881	 822.092	    5
  25.4885	 822.112	    6
  25.4888	 822.131	    5
  25.4892	 822.151	    6
  25.4896	 822.171	    5
  25.4899	 822.190	    6
  25.4903	 822.210	    5
  25.4907	 822.229	    6
  25.4911	 822.249	    5
  25.4914	 822.268	    6
  25.4918	 822.288	    5
  25.4922	 822.308	    6
  25.4925	 822.327	    5
  25.4929	 822.347	    6
  25.4933	 822.366	    5
  25.4936	 822.386	    6
  25.4940	 822.405	    5
  25.4944	 822.425	    6
  25.4948	 822.445	    5
  25.4951	 822.464	    6
  25.4955	 822.484	    5
  25.4959	 822.503	    6
  25.4962	 822.523	    5
  25.4966	 822.542	    6
  25.4970	 822.562	    5
  25.4973	 822.581	    6
  25.4977	 822.601	    5
  25.4981	 822.621	    6
  25.4985	 822.640	    5
  25.4988	 822.660	    6
  25.4992	 822.679	    5
  25.4996	 822.699	    6
  25.4999	 822.718	    5
  25.5003	 822.738	    6
  25.5007	 822.758	    5
  25.5010	 822.777	    6
  25.5014	 822.797	    5
  25.5018	 822.816	    6
  25.5022	 822.836	    5
  25.5025	 822.855	    6
  25.5029	 822.875	    5
  25.5033	 822.895	    6
  25.5036	 822.914	    5
  25.5040	 822.934	    6
  25.5044	 822.953	    5
  25.5047	 822.973	    6
  25.5051	 822.992	    5
  25.5055	 823.012	    6
  25.5059	 823.032	    5
  25.5062	 823.051	    6
  25.5066	 823.071	    5
  25.5070	 823.090	    6
  25.5073	 823.110	    5
  25.5077	 823.129	    6
  25.5081	 823.149	    5
  25.5084	 823.168	    6
  25.5088	 823.188	    5
  25.5092	 823.208	    6
  25.5095	 823.227	    5
  25.5099	 823.247	    6
  25.5103	 823.266	    5
  25.5107	 823.286	    6
  25.5110	 823.305	    5
  25.5114	 823.325	    6
  25.5118	 823.345	    5
  25.5121	 823.364	    6
  25.5125	 823.384	    5
  25.5129	 823.403	    6
  25.5132	 823.423	    5
  25.5136	 823.442	    6
  25.5140	 823.462	    5
  25.5144	 823.482	    6
  25.5147	 823.501	    5
  25.5151	 823.521	    6
  25.5155	 823.540	    5
  25.5158	 823.560	    6
  25.5162	 823.579	    5
  25.5166	 823.599	    6
  25.5169	 823.618	    5
  25.5173	 823.638	    6
  25.5177	 823.658	    5
  25.5181	 823.677	    6
  25.5184	 823.697	    5
  25.5188	 823.716	    6
  25.5192	 823.736	    5
  25.5195	 823.755	    6
  25.5199	 823.775	    5
  25.5203	 823.795	    6
  25.5206	 823.814	    5
  25.5210	 823.834	    6
  25.5214	 823.853	    5
  25.5218	 823.873	    6
  25.5221	 823.892	    5
  25.5225	 823.912	    6
  25.5229	 823.932	    5
  25.5232	 823.951	    6
  25.5236	 823.971	    5
  25.5240	 823.990	    6
  25.5243	 824.010	    5
  25.5247	 824.029	    6
  25.5251	 824.049	    5
  25.5255	 824.069	    6
  25.5258	 824.088	    5
  25.5262	 824.108	    6
  25.5266	 824.127	    5
  25.5269	 824.147	    6
  25.5273	 824.166	    5
  25.5277	 824.186	    6
  25.5280	 824.205	    5
  25.5284	 824.225	    6
  25.5288	 824.245	    5
  25.5292	 824.264	    6
  25.5295	 824.284	    5
  25.5299	 824.303	    6
  25.5303	 824.323	    5
  25.5306	 824.342	    6
  25.5310	 824.362	    5
  25.5314	 824.382	    6
  25.5317	 824.401	    5
  25.5321	 824.421	    6
  25.5325	 824.440	    5
  25.5328	 824.460	    6
  25.5332	 824.479	    5
  25.5336	 824.499	    6
  25.5340	 824.519	    5
  25.5343	 824.538	    6
  25.5347	 824.558	    5
  25.5351	 824.577	    6
  25.5354	 824.597	    5
  25.5358	 824.616	    6
  25.5362	 824.636	    5
  25.5365	 824.655	    6
  25.5369	 824.675	    5
  25.5373	 824.695	    6
  25.5377	 824.714	    5
  25.5380	 824.734	    6
  25.5384	 824.753	    5
  25.5388	 824.773	    6
  25.5391	 824.792	    5
  25.5395	 824.812	    6
  25.5399	 824.832	    5
  25.5402	 824.851	    6
  25.5406	 824.871	    5
  25.5410	 824.890	    6
  25.5414	 824.910	    5
  25.5417	 824.929	    6
  25.5421	 824.949	    5
  25.5425	 824.969	    6
  25.5428	 824.988	    5
  25.5432	 825.008	    6
  25.5436	 825.027	    5
  25.5439	 825.047	    6
  25.5443	 825.066	    5
  25.5447	 825.086	    6
  25.5451	 825.105	    5
  25.5454	 825.125	    6
  25.5458	 825.145	    5
  25.5462	 825.164	    6
  25.5465	 825.184	    5
  25.5469	 825.203	    6
  25.5473	 825.223	    5
  25.5476	 825.242	    6
  25.5480	 825.262	    5
  25.5484	 825.282	    6
  25.5488	 825.301	    5
  25.5491	 825.321	    6
  25.5495	 825.340	    5
  25.5499	 825.360	    6
  25.5502	 825.379	    5
  25.5506	 825.399	    6
  25.5510	 825.419	    5
  25.5513	 825.438	    6
  25.5517	 825.458	    5
  25.5521	 825.477	    6
  25.5525	 825.497	    5
  25.5528	 825.516	    6
  25.5532	 825.536	    5
  25.5536	 825.556	    6
  25.5539	 825.575	    5
  25.5543	 825.595	    6
  25.5547	 825.614	    5
  25.5550	 825.634	    6
  25.5554	 825.653	    5
  25.5558	 825.673	    6
  25.5561	 825.692	    5
  25.5565	 825.712	    6
  25.5569	 825.732	    5
  25.5573	 825.751	    6
  25.5576	 825.771	    5
  25.5580	 825.790	    6
  25.5584	 825.810	    5
  25.5587	 825.829	    6
  25.5591	 825.849	    5
  25.5595	 825.869	    6
  25.5598	 825.888	    5
  25.5602	 825.908	    6
  25.5606	 825.927	    5
  25.5610	 825.947	    6
  25.5613	 825.966	    5
  25.5617	 825.986	    6
  25.5621	 826.006	    5
  25.5624	 826.025	    6
  25.5628	 826.045	    5
  25.5632	 826.064	    5
  25.5635	 826.084	    5
  25.5639	 826.103	    6
  25.5643	 826.123	    5
  25.5647	 826.142	    6
  25.5650	 826.162	    5
  25.5654	 826.182	    6
  25.5658	 826.201	    5
  25.5661	 826.221	    6
  25.5665	 826.240	    5
  25.5669	 826.260	    6
  25.5672	 826.279	    5
  25.5676	 826.299	    6
  25.5680	 826.319	    5
  25.5684	 826.338	    6
  25.5687	 826.358	    5
  25.5691	 826.377	    6
  25.5695	 826.397	    5
  25.5698	 826.416	    6
  25.5702	 826.436	    5
  25.5706	 826.456	    6
  25.5709	 826.475	    5
  25.5713	 826.495	    6
  25.5717	 826.514	    5
  25.5721	 826.534	    6
  25.5724	 826.553	    5
  25.5728	 826.573	    6
  25.5732	 826.593	    5
  25.5735	 826.612	    6
  25.5739	 826.632	    5
  25.5743	 826.651	    6
  25.5746	 826.671	    5
  25.5750	 826.690	    6
  25.5754	 826.710	    5
  25.5757	 826.729	    6
  25.5761	 826.749	    5
  25.5765	 826.769	    6
  25.5769	 826.788	    5
  25.5772	 826.808	    6
  25.5776	 826.827	    5
  25.5780	 826.847	    6
  25.5783	 826.866	    5
  25.5787	 826.886	    6
  25.5791	 826.906	    5
  25.5794	 826.925	    6
  25.5798	 826.945	    5
  25.5802	 826.964	    6
  25.5806	 826.984	    5
  25.5809	 827.003	    6
  25.5813	 827.023	    5
  25.5817	 827.043	    6
  25.5820	 827.062	    5
  25.5824	 827.082	    6
  25.5828	 827.101	    5
  25.5831	 827.121	    6
  25.5835	 827.140	    5
  25.5839	 827.160	    6
  25.5843	 827.179	    5
  25.5846	 827.199	    6
  25.5850	 827.219	    5
  25.5854	 827.238	    6
  25.5857	 827.258	    5
  25.5861	 827.277	    6
  25.5865	 827.297	    5
  25.5868	 827.316	    6
  25.5872	 827.336	    5
  25.5876	 827.356	    6
  25.5880	 827.375	    5
  25.5883	 827.395	    6
  25.5887	 827.414	    5
  25.5891	 827.434	    6
  25.5894	 827.453	    5
  25.5898	 827.473	    6
  25.5902	 827.493	    5
  25.5905	 827.512	    6
  25.5909	 827.532	    5
  25.5913	 827.551	    6
  25.5917	 827.571	    5
  25.5920	 827.590	    6
  25.5924	 827.610	    5
  25.5928	 827.630	    6
  25.5931	 827.649	    5
  25.5935	 827.669	    6
  25.5939	 827.688	    5
  25.5942	 827.708	    6
  25.5946	 827.727	    5
  25.5950	 827.747	    6
  25.5954	 827.766	    5
  25.5957	 827.786	    6
  25.5961	 827.806	    5
  25.5965	 827.825	    6
  25.5968	 827.845	    5
  25.5972	 827.864	    6
  25.5976	 827.884	    5
  25.5979	 827.903	    6
  25.5983	 827.923	    5
  25.5987	 827.943	    6
  25.5990	 827.962	    5
  25.5994	 827.982	    6
  25.5998	 828.001	    5
  25.6002	 828.021	    6
  25.6005	 828.040	    5
  25.6009	 828.060	    6
  25.6013	 828.080	    5
  25.6016	 828.099	    6
  25.6020	 828.119	    5
  25.6024	 828.138	    6
  25.6027	 828.158	    5
  25.6031	 828.177	    6
  25.6035	 828.197	    5
  25.6039	 828.216	    6
  25.6042	 828.236	    5
  25.6046	 828.256	    6
  25.6050	 828.275	    5
  25.6053	 828.295	    6
  25.6057	 828.314	    5
  25.6061	 828.334	    6
  25.6064	 828.353	    5
  25.6068	 828.373	    6
  25.6072	 828.393	    5
  25.6076	 828.412	    6
  25.6079	 828.432	    5
  25.6083	 828.451	    6
  25.6087	 828.471	    5
  25.6090	 828.490	    6
  25.6094	 828.510	    5
  25.6098	 828.530	    6
  25.6101	 828.549	    5
  25.6105	 828.569	    6
  25.6109	 828.588	    5
  25.6113	 828.608	    6
  25.6116	 828.627	    5
  25.6120	 828.647	    6
  25.6124	 828.667	    5
  25.6127	 828.686	    6
  25.6131	 828.706	    5
  25.6135	 828.725	    6
  25.6138	 828.745	    5
  25.6142	 828.764	    6
  25.6146	 828.784	    5
  25.6150	 828.803	    6
  25.6153	 828.823	    5
  25.6157	 828.843	    6
  25.6161	 828.862	    5
  25.6164	 828.882	    6
  25.6168	 828.901	    5
  25.6172	 828.921	    6
  25.6175	 828.940	    5
  25.6179	 828.960	    6
  25.6183	 828.980	    5
  25.6187	 828.999	    6
  25.6190	 829.019	    5
  25.6194	 829.038	    6
  25.6198	 829.058	    5
  25.6201	 829.077	    6
  25.6205	 829.097	    5
  25.6209	 829.117	    6
  25.6212	 829.136	    5
  25.6216	 829.156	    6
  25.6220	 829.175	    5
  25.6223	 829.195	    6
  25.6227	 829.214	    5
  25.6231	 829.234	    6
  25.6235	 829.253	    5
  25.6238	 829.273	    6
  25.6242	 829.293	    5
  25.6246	 829.312	    6
  25.6249	 829.332	    5
  25.6253	 829.351	    6
  25.6257	 829.371	    5
  25.6260	 829.390	    6
  25.6264	 829.410	    5
  25.6268	 829.430	    6
  25.6272	 829.449	    5
  25.6275	 829.469	    6
  25.6279	 829.488	    5
  25.6283	 829.508	    6
  25.6286	 829.527	    5
  25.6290	 829.547	    6
  25.6294	 829.567	    5
  25.6297	 829.586	    6
  25.6301	 829.606	    5
  25.6305	 829.625	    6
  25.6309	 829.645	    5
  25.6312	 829.664	    6
  25.6316	 829.684	    5
  25.6320	 829.703	    6
  25.6323	 829.723	    5
  25.6327	 829.743	    5
  25.6331	 829.762	    5
  25.6334	 829.782	    5
  25.6338	 829.801	    5
  25.6342	 829.821	    6
  25.6346	 829.840	    5
  25.6349	 829.860	    6
  25.6353	 829.880	    5
  25.6357	 829.899	    6
  25.6360	 829.919	    5
  25.6364	 829.938	    6
  25.6368	 829.958	    5
  25.6371	 829.977	    6
  25.6375	 829.997	    5
  25.6379	 830.017	    6
  25.6383	 830.036	    5
  25.6386	 830.056	    6
  25.6390	 830.075	    5
  25.6394	 830.095	    6
  25.6397	 830.114	    5
  25.6401	 830.134	    6
  25.6405	 830.154	    5
  25.6408	 830.173	    6
  25.6412	 830.193	    5
  25.6416	 830.212	    6
  25.6420	 830.232	    5
  25.6423	 830.251	    6
  25.6427	 830.271	    5
  25.6431	 830.290	    6
  25.6434	 830.310	    5
  25.6438	 830.330	    6
  25.6442	 830.349	    5
  25.6445	 830.369	    6
  25.6449	 830.388	    5
  25.6453	 830.408	    6
  25.6456	 830.427	    5
  25.6460	 830.447	    6
  25.6464	 830.467	    5
  25.6468	 830.486	    6
  25.6471	 830.506	    5
  25.6475	 830.525	    6
  25.6479	 830.545	    5
  25.6482	 830.564	    6
  25.6486	 830.584	    5
  25.6490	 830.604	    6
  25.6493	 830.623	    5
  25.6497	 830.643	    6
  25.6501	 830.662	    5
  25.6505	 830.682	    6
  25.6508	 830.701	    5
  25.6512	 830.721	    6
  25.6516	 830.740	    5
  25.6519	 830.760	    6
  25.6523	 830.780	    5
  25.6527	 830.799	    6
  25.6530	 830.819	    5
  25.6534	 830.838	    6
  25.6538	 830.858	    5
  25.6542	 830.877	    6
  25.6545	 830.897	    5
  25.6549	 830.917	    6
  25.6553	 830.936	    5
  25.6556	 830.956	    6
  25.6560	 830.975	    5
  25.6564	 830.995	    6
  25.6567	 831.014	    5
  25.6571	 831.034	    6
  25.6575	 831.054	    5
  25.6579	 831.073	    6
  25.6582	 831.093	    5
  25.6586	 831.112	    6
  25.6590	 831.132	    5
  25.6593	 831.151	    6
  25.6597	 831.171	    5
  25.6601	 831.191	    6
  25.6604	 831.210	    5
  25.6608	 831.230	    6
  25.6612	 831.249	    5
  25.6616	 831.269	    6
  25.6619	 831.288	    5
  25.6623	 831.308	    6
  25.6627	 831.327	    5
  25.6630	 831.347	    6
  25.6634	 831.367	    5
  25.6638	 831.386	    6
  25.6641	 831.406	    5
  25.6645	 831.425	    6
  25.6649	 831.445	    5
  25.6653	 831.464	    6
  25.6656	 831.484	    5
  25.6660	 831.504	    6
  25.6664	 831.523	    5
  25.6667	 831.543	    6
  25.6671	 831.562	    5
  25.6675	 831.582	    6
  25.6678	 831.601	    5
  25.6682	 831.621	    6
  25.6686	 831.641	    5
  25.6689	 831.660	    6
  25.6693	 831.680	    5
  25.6697	 831.699	    6
  25.6701	 831.719	    5
  25.6704	 831.738	    5
  25.6708	 831.758	    5
  25.6712	 831.777	    6
  25.6715	 831.797	    5
  25.6719	 831.817	    6
  25.6723	 831.836	    5
  25.6726	 831.856	    6
  25.6730	 831.875	    5
  25.6734	 831.895	    6
  25.6738	 831.914	    5
  25.6741	 831.934	    6
  25.6745	 831.954	    5
  25.6749	 831.973	    6
  25.6752	 831.993	    5
  25.6756	 832.012	    6
  25.6760	 832.032	    5
  25.6763	 832.051	    6
  25.6767	 832.071	    5
  25.6771	 832.091	    6
  25.6775	 832.110	    5
  25.6778	 832.130	    6
  25.6782	 832.149	    5
  25.6786	 832.169	    6
  25.6789	 832.188	    5
  25.6793	 832.208	    6
  25.6797	 832.228	    5
  25.6800	 832.247	    6
  25.6804	 832.267	    5
  25.6808	 832.286	    6
  25.6812	 832.306	    5
  25.6815	 832.325	    6
  25.6819	 832.345	    5
  25.6823	 832.364	    6
  25.6826	 832.384	    5
  25.6830	 832.404	    6
  25.6834	 832.423	    5
  25.6837	 832.443	    6
  25.6841	 832.462	    5
  25.6845	 832.482	    6
  25.6849	 832.501	    5
  25.6852	 832.521	    6
  25.6856	 832.541	    5
  25.6860	 832.560	    6
  25.6863	 832.580	    5
  25.6867	 832.599	    6
  25.6871	 832.619	    5
  25.6874	 832.638	    6
  25.6878	 832.658	    5
  25.6882	 832.678	    6
  25.6886	 832.697	    5
  25.6889	 832.717	    6
  25.6893	 832.736	    5
  25.6897	 832.756	    6
  25.6900	 832.775	    5
  25.6904	 832.795	    6
  25.6908	 832.814	    5
  25.6911	 832.834	    6
  25.6915	 832.854	    5
  25.6919	 832.873	    6
  25.6922	 832.893	    5
  25.6926	 832.912	    6
  25.6930	 832.932	    5
  25.6934	 832.951	    6
  25.6937	 832.971	    5
  25.6941	 832.991	    6
  25.6945	 833.010	    5
  25.6948	 833.030	    6
  25.6952	 833.049	    5
  25.6956	 833.069	    6
  25.6959	 833.088	    5
  25.6963	 833.108	    6
  25.6967	 833.128	    5
  25.6971	 833.147	    6
  25.6974	 833.167	    5
  25.6978	 833.186	    6
  25.6982	 833.206	    5
  25.6985	 833.225	    6
  25.6989	 833.245	    5
  25.6993	 833.265	    6
  25.6996	 833.284	    5
  25.7000	 833.304	    6
  25.7004	 833.323	    5
  25.7008	 833.343	    6
  25.7011	 833.362	    5
  25.7015	 833.382	    6
  25.7019	 833.401	    5
  25.7022	 833.421	    6
  25.7026	 833.441	    5
  25.7030	 833.460	    6
  25.7033	 833.480	    5
  25.7037	 833.499	    6
  25.7041	 833.519	    5
  25.7045	 833.538	    6
  25.7048	 833.558	    5
  25.7052	 833.578	    6
  25.7056	 833.597	    5
  25.7059	 833.617	    6
  25.7063	 833.636	    5
  25.7067	 833.656	    6
  25.7070	 833.675	    5
  25.7074	 833.695	    6
  25.7078	 833.715	    5
  25.7082	 833.734	    6
  25.7085	 833.754	    5
  25.7089	 833.773	    6
  25.7093	 833.793	    5
  25.7096	 833.812	    6
  25.7100	 833.832	    5
  25.7104	 833.851	    6
  25.7107	 833.871	    5
  25.7111	 833.891	    6
  25.7115	 833.910	    5
  25.7119	 833.930	    6
  25.7122	 833.949	    5
  25.7126	 833.969	    6
  25.7130	 833.988	    5
  25.7133	 834.008	    6
  25.7137	 834.028	    5
  25.7141	 834.047	    6
  25.7144	 834.067	    5
  25.7148	 834.086	    6
  25.7152	 834.106	    5
  25.7155	 834.125	    6
  25.7159	 834.145	    5
  25.7163	 834.165	    6
  25.7167	 834.184	    5
  25.7170	 834.204	    6
  25.7174	 834.223	    5
  25.7178	 834.243	    6
  25.7181	 834.262	    5
  25.7185	 834.282	    6
  25.7189	 834.302	    5
  25.7192	 834.321	    6
  25.7196	 834.341	    5
  25.7200	 834.360	    6
  25.7204	 834.380	    5
  25.7207	 834.399	    6
  25.7211	 834.419	    5
  25.7215	 834.438	    6
  25.7218	 834.458	    5
  25.7222	 834.478	    6
  25.7226	 834.497	    5
  25.7229	 834.517	    6
  25.7233	 834.536	    5
  25.7237	 834.556	    6
  25.7241	 834.575	    5
  25.7244	 834.595	    6
  25.7248	 834.615	    5
  25.7252	 834.634	    6
  25.7255	 834.654	    5
  25.7259	 834.673	    6
  25.7263	 834.693	    5
  25.7266	 834.712	    6
  25.7270	 834.732	    5
  25.7274	 834.752	    6
  25.7278	 834.771	    5
  25.7281	 834.791	    6
  25.7285	 834.810	    5
  25.7289	 834.830	    6
  25.7292	 834.849	    5
  25.7296	 834.869	    6
  25.7300	 834.888	    5
  25.7303	 834.908	    6
  25.7307	 834.928	    5
  25.7311	 834.947	    6
  25.7315	 834.967	    5
  25.7318	 834.986	    6
  25.7322	 835.006	    5
  25.7326	 835.025	    6
  25.7329	 835.045	    5
  25.7333	 835.065	    6
  25.7337	 835.084	    5
  25.7340	 835.104	    6
  25.7344	 835.123	    5
  25.7348	 835.143	    6
  25.7352	 835.162	    5
  25.7355	 835.182	    6
  25.7359	 835.202	    5
  25.7363	 835.221	    6
  25.7366	 835.241	    5
  25.7370	 835.260	    6
  25.7374	 835.280	    5
  25.7377	 835.299	    6
  25.7381	 835.319	    5
  25.7385	 835.338	    6
  25.7388	 835.358	    5
  25.7392	 835.378	    6
  25.7396	 835.397	    5
  25.7400	 835.417	    6
  25.7403	 835.436	    5
  25.7407	 835.456	    6
  25.7411	 835.475	    5
  25.7414	 835.495	    6
  25.7418	 835.515	    5
  25.7422	 835.534	    6
  25.7425	 835.554	    5
  25.7429	 835.573	    6
  25.7433	 835.593	    5
  25.7437	 835.612	    6
  25.7440	 835.632	    5
  25.7444	 835.652	    6
  25.7448	 835.671	    5
  25.7451	 835.691	    6
  25.7455	 835.710	    5
  25.7459	 835.730	    6
  25.7462	 835.749	    5
  25.7466	 835.769	    6
  25.7470	 835.789	    5
  25.7474	 835.808	    6
  25.7477	 835.828	    5
  25.7481	 835.847	    6
  25.7485	 835.867	    5
  25.7488	 835.886	    6
  25.7492	 835.906	    5
  25.7496	 835.925	    6
  25.7499	 835.945	    5
  25.7503	 835.965	    6
  25.7507	 835.984	    5
  25.7511	 836.004	    6
  25.7514	 836.023	    5
  25.7518	 836.043	    6
  25.7522	 836.062	    5
  25.7525	 836.082	    6
  25.7529	 836.102	    5
  25.7533	 836.121	    6
  25.7536	 836.141	    5
  25.7540	 836.160	    6
  25.7544	 836.180	    5
  25.7548	 836.199	    6
  25.7551	 836.219	    5
  25.7555	 836.239	    6
  25.7559	 836.258	    5
  25.7562	 836.278	    6
  25.7566	 836.297	    5
  25.7570	 836.317	    6
  25.7573	 836.336	    5
  25.7577	 836.356	    6
  25.7581	 836.375	    5
  25.7585	 836.395	    6
  25.7588	 836.415	    5
  25.7592	 836.434	    6
  25.7596	 836.454	    5
  25.7599	 836.473	    6
  25.7603	 836.493	    5
  25.7607	 836.512	    6
  25.7610	 836.532	    5
  25.7614	 836.552	    6
  25.7618	 836.571	    5
  25.7621	 836.591	    6
  25.7625	 836.610	    5
  25.7629	 836.630	    6
  25.7633	 836.649	    5
  25.7636	 836.669	    6
  25.7640	 836.689	    5
  25.7644	 836.708	    6
  25.7647	 836.728	    5
  25.7651	 836.747	    5
  25.7655	 836.767	    5
  25.7658	 836.786	    6
  25.7662	 836.806	    5
  25.7666	 836.826	    6
  25.7670	 836.845	    5
  25.7673	 836.865	    5
  25.7677	 836.884	    5
  25.7681	 836.904	    6
  25.7684	 836.923	    5
  25.7688	 836.943	    6
  25.7692	 836.962	    5
  25.7695	 836.982	    6
  25.7699	 837.002	    5
  25.7703	 837.021	    6
  25.7707	 837.041	    5
  25.7710	 837.060	    6
  25.7714	 837.080	    5
  25.7718	 837.099	    6
  25.7721	 837.119	    5
  25.7725	 837.139	    6
  25.7729	 837.158	    5
  25.7732	 837.178	    6
  25.7736	 837.197	    5
  25.7740	 837.217	    5
  25.7744	 837.236	    5
  25.7747	 837.256	    6
  25.7751	 837.276	    5
  25.7755	 837.295	    6
  25.7758	 837.315	    5
  25.7762	 837.334	    6
  25.7766	 837.354	    5
  25.7769	 837.373	    6
  25.7773	 837.393	    5
  25.7777	 837.412	    5
  25.7781	 837.432	    5
  25.7784	 837.452	    6
  25.7788	 837.471	    5
  25.7792	 837.491	    6
  25.7795	 837.510	    5
  25.7799	 837.530	    6
  25.7803	 837.549	    5
  25.7806	 837.569	    6
  25.7810	 837.589	    5
  25.7814	 837.608	    6
  25.7818	 837.628	    5
  25.7821	 837.647	    6
  25.7825	 837.667	    5
  25.7829	 837.686	    6
  25.7832	 837.706	    5
  25.7836	 837.726	    6
  25.7840	 837.745	    5
  25.7843	 837.765	    6
  25.7847	 837.784	    5
  25.7851	 837.804	    6
  25.7854	 837.823	    5
  25.7858	 837.843	    5
  25.7862	 837.863	    5
  25.7866	 837.882	    6
  25.7869	 837.902	    5
  25.7873	 837.921	    6
  25.7877	 837.941	    5
  25.7880	 837.960	    6
  25.7884	 837.980	    5
  25.7888	 837.999	    6
  25.7891	 838.019	    5
  25.7895	 838.039	    6
  25.7899	 838.058	    5
  25.7903	 838.078	    6
  25.7906	 838.097	    5
  25.7910	 838.117	    6
  25.7914	 838.136	    5
  25.7917	 838.156	    6
  25.7921	 838.176	    5
  25.7925	 838.195	    6
  25.7928	 838.215	    5
  25.7932	 838.234	    6
  25.7936	 838.254	    5
  25.7940	 838.273	    6
  25.7943	 838.293	    5
  25.7947	 838.313	    5
  25.7951	 838.332	    5
  25.7954	 838.352	    6
  25.7958	 838.371	    5
  25.7962	 838.391	    5
  25.7965	 838.410	    5
  25.7969	 838.430	    5
  25.7973	 838.449	    5
  25.7977	 838.469	    5
  25.7980	 838.489	    5
  25.7984	 838.508	    5
  25.7988	 838.528	    5
  25.7991	 838.547	    6
  25.7995	 838.567	    5
  25.7999	 838.586	    6
  25.8002	 838.606	    5
  25.8006	 838.626	    6
  25.8010	 838.645	    5
  25.8014	 838.665	    6
  25.8017	 838.684	    5
  25.8021	 838.704	    5
  25.8025	 838.723	    5
  25.8028	 838.743	    6
  25.8032	 838.763	    5
  25.8036	 838.782	    6
  25.8039	 838.802	    5
  25.8043	 838.821	    6
  25.8047	 838.841	    5
  25.8051	 838.860	    6
  25.8054	 838.880	    5
  25.8058	 838.900	    6
  25.8062	 838.919	    5
  25.8065	 838.939	    6
  25.8069	 838.958	    5
  25.8073	 838.978	    6
  25.8076	 838.997	    5
  25.8080	 839.017	    6
  25.8084	 839.036	    5
  25.8087	 839.056	    6
  25.8091	 839.076	    5
  25.8095	 839.095	    6
  25.8099	 839.115	    5
  25.8102	 839.134	    6
  25.8106	 839.154	    5
  25.8110	 839.173	    6
  25.8113	 839.193	    5
  25.8117	 839.213	    5
  25.8121	 839.232	    5
  25.8124	 839.252	    6
  25.8128	 839.271	    5
  25.8132	 839.291	    6
  25.8136	 839.310	    5
  25.8139	 839.330	    6
  25.8143	 839.350	    5
  25.8147	 839.369	    5
  25.8150	 839.389	    5
  25.8154	 839.408	    6
  25.8158	 839.428	    5
  25.8161	 839.447	    6
  25.8165	 839.467	    5
  25.8169	 839.486	    6
  25.8173	 839.506	    5
  25.8176	 839.526	    6
  25.8180	 839.545	    5
  25.8184	 839.565	    6
  25.8187	 839.584	    5
  25.8191	 839.604	    6
  25.8195	 839.623	    5
  25.8198	 839.643	    6
  25.8202	 839.663	    5
  25.8206	 839.682	    5
  25.8210	 839.702	    5
  25.8213	 839.721	    6
  25.8217	 839.741	    5
  25.8221	 839.760	    6
  25.8224	 839.780	    5
  25.8228	 839.800	    6
  25.8232	 839.819	    5
  25.8235	 839.839	    6
  25.8239	 839.858	    5
  25.8243	 839.878	    5
  25.8247	 839.897	    5
  25.8250	 839.917	    6
  25.8254	 839.936	    5
  25.8258	 839.956	    6
  25.8261	 839.976	    5
  25.8265	 839.995	    6
  25.8269	 840.015	    5
  25.8272	 840.034	    6
  25.8276	 840.054	    5
  25.8280	 840.073	    6
  25.8283	 840.093	    5
  25.8287	 840.113	    6
  25.8291	 840.132	    5
  25.8295	 840.152	    6
  25.8298	 840.171	    5
  25.8302	 840.191	    6
  25.8306	 840.210	    5
  25.8309	 840.230	    6
  25.8313	 840.250	    5
  25.8317	 840.269	    6
  25.8320	 840.289	    5
  25.8324	 840.308	    6
  25.8328	 840.328	    5
  25.8332	 840.347	    6
  25.8335	 840.367	    5
  25.8339	 840.387	    6
  25.8343	 840.406	    5
  25.8346	 840.426	    6
  25.8350	 840.445	    5
  25.8354	 840.465	    6
  25.8357	 840.484	    5
  25.8361	 840.504	    6
  25.8365	 840.523	    5
  25.8369	 840.543	    5
  25.8372	 840.563	    5
  25.8376	 840.582	    5
  25.8380	 840.602	    5
  25.8383	 840.621	    6
  25.8387	 840.641	    5
  25.8391	 840.660	    6
  25.8394	 840.680	    5
  25.8398	 840.700	    6
  25.8402	 840.719	    5
  25.8406	 840.739	    5
  25.8409	 840.758	    5
  25.8413	 840.778	    6
  25.8417	 840.797	    5
  25.8420	 840.817	    6
  25.8424	 840.837	    5
  25.8428	 840.856	    6
  25.8431	 840.876	    5
  25.8435	 840.895	    6
  25.8439	 840.915	    5
  25.8443	 840.934	    6
  25.8446	 840.954	    5
  25.8450	 840.973	    6
  25.8454	 840.993	    5
  25.8457	 841.013	    5
  25.8461	 841.032	    5
  25.8465	 841.052	    6
  25.8468	 841.071	    5
  25.8472	 841.091	    6
  25.8476	 841.110	    5
  25.8480	 841.130	    6
  25.8483	 841.150	    5
  25.8487	 841.169	    6
  25.8491	 841.189	    5
  25.8494	 841.208	    6
  25.8498	 841.228	    5
  25.8502	 841.247	    6
  25.8505	 841.267	    5
  25.8509	 841.287	    6
  25.8513	 841.306	    5
  25.8516	 841.326	    6
  25.8520	 841.345	    5
  25.8524	 841.365	    6
  25.8528	 841.384	    5
  25.8531	 841.404	    6
  25.8535	 841.424	    5
  25.8539	 841.443	    6
  25.8542	 841.463	    5
  25.8546	 841.482	    6
  25.8550	 841.502	    5
  25.8553	 841.521	    6
  25.8557	 841.541	    5
  25.8561	 841.560	    6
  25.8565	 841.580	    5
  25.8568	 841.600	    6
  25.8572	 841.619	    5
  25.8576	 841.639	    6
  25.8579	 841.658	    5
  25.8583	 841.678	    6
  25.8587	 841.697	    5
  25.8590	 841.717	    6
  25.8594	 841.737	    5
  25.8598	 841.756	    6
  25.8602	 841.776	    5
  25.8605	 841.795	    6
  25.8609	 841.815	    5
  25.8613	 841.834	    6
  25.8616	 841.854	    5
  25.8620	 841.874	    6
  25.8624	 841.893	    5
  25.8627	 841.913	    6
  25.8631	 841.932	    5
  25.8635	 841.952	    6
  25.8639	 841.971	    5
  25.8642	 841.991	    6
  25.8646	 842.010	    5
  25.8650	 842.030	    6
  25.8653	 842.050	    5
  25.8657	 842.069	    6
  25.8661	 842.089	    5
  25.8664	 842.108	    6
  25.8668	 842.128	    5
  25.8672	 842.147	    6
  25.8676	 842.167	    5
  25.8679	 842.187	    6
  25.8683	 842.206	    5
  25.8687	 842.226	    6
  25.8690	 842.245	    5
  25.8694	 842.265	    6
  25.8698	 842.284	    5
  25.8701	 842.304	    6
  25.8705	 842.324	    5
  25.8709	 842.343	    6
  25.8713	 842.363	    5
  25.8716	 842.382	    6
  25.8720	 842.402	    5
  25.8724	 842.421	    6
  25.8727	 842.441	    5
  25.8731	 842.461	    6
  25.8735	 842.480	    5
  25.8738	 842.500	    6
  25.8742	 842.519	    5
  25.8746	 842.539	    6
  25.8749	 842.558	    5
  25.8753	 842.578	    5
  25.8757	 842.597	    5
  25.8761	 842.617	    6
  25.8764	 842.637	    5
  25.8768	 842.656	    6
  25.8772	 842.676	    5
  25.8775	 842.695	    6
  25.8779	 842.715	    5
  25.8783	 842.734	    6
  25.8786	 842.754	    5
  25.8790	 842.774	    6
  25.8794	 842.793	    5
  25.8798	 842.813	    6
  25.8801	 842.832	    5
  25.8805	 842.852	    6
  25.8809	 842.871	    5
  25.8812	 842.891	    6
  25.8816	 842.911	    5
  25.8820	 842.930	    6
  25.8823	 842.950	    5
  25.8827	 842.969	    6
  25.8831	 842.989	    5
  25.8835	 843.008	    6
  25.8838	 843.028	    5
  25.8842	 843.047	    6
  25.8846	 843.067	    5
  25.8849	 843.087	    6
  25.8853	 843.106	    5
  25.8857	 843.126	    6
  25.8860	 843.145	    5
  25.8864	 843.165	    6
  25.8868	 843.184	    5
  25.8872	 843.204	    6
  25.8875	 843.224	    5
  25.8879	 843.243	    6
  25.8883	 843.263	    5
  25.8886	 843.282	    6
  25.8890	 843.302	    5
  25.8894	 843.321	    6
  25.8897	 843.341	    5
  25.8901	 843.361	    6
  25.8905	 843.380	    5
  25.8909	 843.400	    6
  25.8912	 843.419	    5
  25.8916	 843.439	    6
  25.8920	 843.458	    5
  25.8923	 843.478	    6
  25.8927	 843.498	    5
  25.8931	 843.517	    6
  25.8934	 843.537	    5
  25.8938	 843.556	    6
  25.8942	 843.576	    5
  25.8946	 843.595	    6
  25.8949	 843.615	    5
  25.8953	 843.634	    6
  25.8957	 843.654	    5
  25.8960	 843.674	    6
  25.8964	 843.693	    5
  25.8968	 843.713	    6
  25.8971	 843.732	    5
  25.8975	 843.752	    6
  25.8979	 843.771	    5
  25.8982	 843.791	    5
  25.8986	 843.811	    5
  25.8990	 843.830	    6
  25.8994	 843.850	    5
  25.8997	 843.869	    6
  25.9001	 843.889	    5
  25.9005	 843.908	    6
  25.9008	 843.928	    5
  25.9012	 843.948	    6
  25.9016	 843.967	    5
  25.9019	 843.987	    6
  25.9023	 844.006	    5
  25.9027	 844.026	    6
  25.9031	 844.045	    5
  25.9034	 844.065	    6
  25.9038	 844.084	    5
  25.9042	 844.104	    6
  25.9045	 844.124	    5
  25.9049	 844.143	    6
  25.9053	 844.163	    5
  25.9056	 844.182	    6
  25.9060	 844.202	    5
  25.9064	 844.221	    6
  25.9068	 844.241	    5
  25.9071	 844.261	    6
  25.9075	 844.280	    5
  25.9079	 844.300	    6
  25.9082	 844.319	    5
  25.9086	 844.339	    6
  25.9090	 844.358	    5
  25.9093	 844.378	    6
  25.9097	 844.398	    5
  25.9101	 844.417	    6
  25.9105	 844.437	    5
  25.9108	 844.456	    6
  25.9112	 844.476	    5
  25.9116	 844.495	    6
  25.9119	 844.515	    5
  25.9123	 844.534	    6
  25.9127	 844.554	    5
  25.9130	 844.574	    6
  25.9134	 844.593	    5
  25.9138	 844.613	    6
  25.9142	 844.632	    5
  25.9145	 844.652	    6
  25.9149	 844.671	    5
  25.9153	 844.691	    6
  25.9156	 844.711	    5
  25.9160	 844.730	    6
  25.9164	 844.750	    5
  25.9167	 844.769	    5
  25.9171	 844.789	    5
  25.9175	 844.808	    6
  25.9179	 844.828	    5
  25.9182	 844.848	    5
  25.9186	 844.867	    5
  25.9190	 844.887	    5
  25.9193	 844.906	    5
  25.9197	 844.926	    5
  25.9201	 844.945	    5
  25.9204	 844.965	    6
  25.9208	 844.985	    5
  25.9212	 845.004	    6
  25.9215	 845.024	    5
  25.9219	 845.043	    6
  25.9223	 845.063	    5
  25.9227	 845.082	    5
  25.9230	 845.102	    5
  25.9234	 845.121	    5
  25.9238	 845.141	    5
  25.9241	 845.161	    5
  25.9245	 845.180	    5
  25.9249	 845.200	    6
  25.9252	 845.219	    5
  25.9256	 845.239	    6
  25.9260	 845.258	    5
  25.9264	 845.278	    6
  25.9267	 845.298	    5
  25.9271	 845.317	    6
  25.9275	 845.337	    5
  25.9278	 845.356	    6
  25.9282	 845.376	    5
  25.9286	 845.395	    6
  25.9289	 845.415	    5
  25.9293	 845.435	    6
  25.9297	 845.454	    5
  25.9301	 845.474	    6
  25.9304	 845.493	    5
  25.9308	 845.513	    6
  25.9312	 845.532	    5
  25.9315	 845.552	    6
  25.9319	 845.571	    5
  25.9323	 845.591	    6
  25.9326	 845.611	    5
  25.9330	 845.630	    6
  25.9334	 845.650	    5
  25.9338	 845.669	    6
  25.9341	 845.689	    5
  25.9345	 845.708	    5
  25.9349	 845.728	    5
  25.9352	 845.748	    6
  25.9356	 845.767	    5
  25.9360	 845.787	    6
  25.9363	 845.806	    5
  25.9367	 845.826	    6
  25.9371	 845.845	    5
  25.9375	 845.865	    6
  25.9378	 845.885	    5
  25.9382	 845.904	    6
  25.9386	 845.924	    5
  25.9389	 845.943	    6
  25.9393	 845.963	    5
  25.9397	 845.982	    6
  25.9400	 846.002	    5
  25.9404	 846.022	    6
  25.9408	 846.041	    5
  25.9412	 846.061	    5
  25.9415	 846.080	    5
  25.9419	 846.100	    6
  25.9423	 846.119	    5
  25.9426	 846.139	    6
  25.9430	 846.158	    5
  25.9434	 846.178	    6
  25.9437	 846.198	    5
  25.9441	 846.217	    6
  25.9445	 846.237	    5
  25.9448	 846.256	    6
  25.9452	 846.276	    5
  25.9456	 846.295	    6
  25.9460	 846.315	    5
  25.9463	 846.335	    6
  25.9467	 846.354	    5
  25.9471	 846.374	    5
  25.9474	 846.393	    5
  25.9478	 846.413	    6
  25.9482	 846.432	    5
  25.9485	 846.452	    6
  25.9489	 846.472	    5
  25.9493	 846.491	    6
  25.9497	 846.511	    5
  25.9500	 846.530	    6
  25.9504	 846.550	    5
  25.9508	 846.569	    6
  25.9511	 846.589	    5
  25.9515	 846.608	    6
  25.9519	 846.628	    5
  25.9522	 846.648	    5
  25.9526	 846.667	    5
  25.9530	 846.687	    6
  25.9534	 846.706	    5
  25.9537	 846.726	    6
  25.9541	 846.745	    5
  25.9545	 846.765	    6
  25.9548	 846.785	    5
  25.9552	 846.804	    6
  25.9556	 846.824	    5
  25.9559	 846.843	    6
  25.9563	 846.863	    5
  25.9567	 846.882	    6
  25.9571	 846.902	    5
  25.9574	 846.922	    6
  25.9578	 846.941	    5
  25.9582	 846.961	    6
  25.9585	 846.980	    5
  25.9589	 847.000	    5
  25.9593	 847.019	    5
  25.9596	 847.039	    6
  25.9600	 847.059	    5
  25.9604	 847.078	    5
  25.9608	 847.098	    5
  25.9611	 847.117	    5
  25.9615	 847.137	    5
  25.9619	 847.156	    5
  25.9622	 847.176	    5
  25.9626	 847.195	    5
  25.9630	 847.215	    5
  25.9633	 847.235	    5
  25.9637	 847.254	    5
  25.9641	 847.274	    6
  25.9645	 847.293	    5
  25.9648	 847.313	    5
  25.9652	 847.332	    5
  25.9656	 847.352	    6
  25.9659	 847.372	    5
  25.9663	 847.391	    6
  25.9667	 847.411	    5
  25.9670	 847.430	    5
  25.9674	 847.450	    5
  25.9678	 847.469	    6
  25.9681	 847.489	    5
  25.9685	 847.509	    6
  25.9689	 847.528	    5
  25.9693	 847.548	    6
  25.9696	 847.567	    5
  25.9700	 847.587	    6
  25.9704	 847.606	    5
  25.9707	 847.626	    6
  25.9711	 847.645	    5
  25.9715	 847.665	    6
  25.9718	 847.685	    5
  25.9722	 847.704	    6
  25.9726	 847.724	    5
  25.9730	 847.743	    6
  25.9733	 847.763	    5
  25.9737	 847.782	    6
  25.9741	 847.802	    5
  25.9744	 847.822	    6
  25.9748	 847.841	    5
  25.9752	 847.861	    6
  25.9755	 847.880	    5
  25.9759	 847.900	    6
  25.9763	 847.919	    5
  25.9767	 847.939	    6
  25.9770	 847.959	    5
  25.9774	 847.978	    6
  25.9778	 847.998	    5
  25.9781	 848.017	    6
  25.9785	 848.037	    5
  25.9789	 848.056	    6
  25.9792	 848.076	    5
  25.9796	 848.096	    5
  25.9800	 848.115	    5
  25.9804	 848.135	    6
  25.9807	 848.154	    5
  25.9811	 848.174	    5
  25.9815	 848.193	    5
  25.9818	 848.213	    6
  25.9822	 848.232	    5
  25.9826	 848.252	    5
  25.9829	 848.272	    5
  25.9833	 848.291	    5
  25.9837	 848.311	    5
  25.9841	 848.330	    5
  25.9844	 848.350	    5
  25.9848	 848.369	    6
  25.9852	 848.389	    5
  25.9855	 848.409	    5
  25.9859	 848.428	    5
  25.9863	 848.448	    5
  25.9866	 848.467	    5
  25.9870	 848.487	    5
  25.9874	 848.506	    5
  25.9878	 848.526	    5
  25.9881	 848.546	    5
  25.9885	 848.565	    5
  25.9889	 848.585	    5
  25.9892	 848.604	    5
  25.9896	 848.624	    5
  25.9900	 848.643	    5
  25.9903	 848.663	    5
  25.9907	 848.682	    5
  25.9911	 848.702	    5
  25.9914	 848.722	    5
  25.9918	 848.741	    5
  25.9922	 848.761	    5
  25.9926	 848.780	    5
  25.9929	 848.800	    5
  25.9933	 848.819	    5
  25.9937	 848.839	    5
  25.9940	 848.859	    5
  25.9944	 848.878	    5
  25.9948	 848.898	    5
  25.9951	 848.917	    5
  25.9955	 848.937	    5
  25.9959	 848.956	    6
  25.9963	 848.976	    5
  25.9966	 848.996	    6
  25.9970	 849.015	    5
  25.9974	 849.035	    6
  25.9977	 849.054	    5
  25.9981	 849.074	    5
  25.9985	 849.093	    5
  25.9988	 849.113	    5
  25.9992	 849.133	    5
  25.9996	 849.152	    5
  26.0000	 849.172	    5
  26.0003	 849.191	    6
  26.0007	 849.211	    5
  26.0011	 849.230	    6
  26.0014	 849.250	    5
  26.0018	 849.269	    6
  26.0022	 849.289	    5
  26.0025	 849.309	    6
  26.0029	 849.328	    5
  26.0033	 849.348	    6
  26.0037	 849.367	    5
  26.0040	 849.387	    6
  26.0044	 849.406	    5
  26.0048	 849.426	    5
  26.0051	 849.446	    5
  26.0055	 849.465	    6
  26.0059	 849.485	    5
  26.0062	 849.504	    5
  26.0066	 849.524	    5
  26.0070	 849.543	    6
  26.0074	 849.563	    5
  26.0077	 849.583	    5
  26.0081	 849.602	    5
  26.0085	 849.622	    6
  26.0088	 849.641	    5
  26.0092	 849.661	    6
  26.0096	 849.680	    5
  26.0099	 849.700	    6
  26.0103	 849.719	    5
  26.0107	 849.739	    6
  26.0111	 849.759	    5
  26.0114	 849.778	    6
  26.0118	 849.798	    5
  26.0122	 849.817	    5
  26.0125	 849.837	    5
  26.0129	 849.856	    6
  26.0133	 849.876	    5
  26.0136	 849.896	    6
  26.0140	 849.915	    5
  26.0144	 849.935	    6
  26.0147	 849.954	    5
  26.0151	 849.974	    6
  26.0155	 849.993	    5
  26.0159	 850.013	    6
  26.0162	 850.033	    5
  26.0166	 850.052	    6
  26.0170	 850.072	    5
  26.0173	 850.091	    6
  26.0177	 850.111	    5
  26.0181	 850.130	    6
  26.0184	 850.150	    5
  26.0188	 850.169	    5
  26.0192	 850.189	    5
  26.0196	 850.209	    6
  26.0199	 850.228	    5
  26.0203	 850.248	    6
  26.0207	 850.267	    5
  26.0210	 850.287	    6
  26.0214	 850.306	    5
  26.0218	 850.326	    5
  26.0221	 850.346	    5
  26.0225	 850.365	    5
  26.0229	 850.385	    5
  26.0233	 850.404	    6
  26.0236	 850.424	    5
  26.0240	 850.443	    5
  26.0244	 850.463	    5
  26.0247	 850.483	    5
  26.0251	 850.502	    5
  26.0255	 850.522	    5
  26.0258	 850.541	    5
  26.0262	 850.561	    5
  26.0266	 850.580	    5
  26.0270	 850.600	    5
  26.0273	 850.620	    5
  26.0277	 850.639	    5
  26.0281	 850.659	    5
  26.0284	 850.678	    5
  26.0288	 850.698	    5
  26.0292	 850.717	    6
  26.0295	 850.737	    5
  26.0299	 850.756	    6
  26.0303	 850.776	    5
  26.0307	 850.796	    5
  26.0310	 850.815	    5
  26.0314	 850.835	    5
  26.0318	 850.854	    5
  26.0321	 850.874	    5
  26.0325	 850.893	    5
  26.0329	 850.913	    6
  26.0332	 850.933	    5
  26.0336	 850.952	    6
  26.0340	 850.972	    5
  26.0344	 850.991	    5
  26.0347	 851.011	    5
  26.0351	 851.030	    6
  26.0355	 851.050	    5
  26.0358	 851.070	    6
  26.0362	 851.089	    5
  26.0366	 851.109	    5
  26.0369	 851.128	    5
  26.0373	 851.148	    5
  26.0377	 851.167	    5
  26.0380	 851.187	    6
  26.0384	 851.206	    5
  26.0388	 851.226	    6
  26.0392	 851.246	    5
  26.0395	 851.265	    6
  26.0399	 851.285	    5
  26.0403	 851.304	    6
  26.0406	 851.324	    5
  26.0410	 851.343	    6
  26.0414	 851.363	    5
  26.0417	 851.383	    6
  26.0421	 851.402	    5
  26.0425	 851.422	    5
  26.0429	 851.441	    5
  26.0432	 851.461	    5
  26.0436	 851.480	    5
  26.0440	 851.500	    5
  26.0443	 851.520	    5
  26.0447	 851.539	    5
  26.0451	 851.559	    5
  26.0454	 851.578	    5
  26.0458	 851.598	    5
  26.0462	 851.617	    5
  26.0466	 851.637	    5
  26.0469	 851.657	    6
  26.0473	 851.676	    5
  26.0477	 851.696	    5
  26.0480	 851.715	    5
  26.0484	 851.735	    6
  26.0488	 851.754	    5
  26.0491	 851.774	    6
  26.0495	 851.793	    5
  26.0499	 851.813	    6
  26.0503	 851.833	    5
  26.0506	 851.852	    6
  26.0510	 851.872	    5
  26.0514	 851.891	    6
  26.0517	 851.911	    5
  26.0521	 851.930	    5
  26.0525	 851.950	    5
  26.0528	 851.970	    5
  26.0532	 851.989	    5
  26.0536	 852.009	    6
  26.0540	 852.028	    5
  26.0543	 852.048	    6
  26.0547	 852.067	    5
  26.0551	 852.087	    6
  26.0554	 852.107	    5
  26.0558	 852.126	    6
  26.0562	 852.146	    5
  26.0565	 852.165	    5
  26.0569	 852.185	    5
  26.0573	 852.204	    5
  26.0577	 852.224	    5
  26.0580	 852.243	    5
  26.0584	 852.263	    5
  26.0588	 852.283	    5
  26.0591	 852.302	    5
  26.0595	 852.322	    6
  26.0599	 852.341	    5
  26.0602	 852.361	    6
  26.0606	 852.380	    5
  26.0610	 852.400	    6
  26.0613	 852.420	    5
  26.0617	 852.439	    5
  26.0621	 852.459	    5
  26.0625	 852.478	    6
  26.0628	 852.498	    5
  26.0632	 852.517	    6
  26.0636	 852.537	    5
  26.0639	 852.557	    6
  26.0643	 852.576	    5
  26.0647	 852.596	    5
  26.0650	 852.615	    5
  26.0654	 852.635	    5
  26.0658	 852.654	    5
  26.0662	 852.674	    6
  26.0665	 852.694	    5
  26.0669	 852.713	    5
  26.0673	 852.733	    5
  26.0676	 852.752	    5
  26.0680	 852.772	    5
  26.0684	 852.791	    5
  26.0687	 852.811	    5
  26.0691	 852.830	    5
  26.0695	 852.850	    5
  26.0699	 852.870	    5
  26.0702	 852.889	    5
  26.0706	 852.909	    6
  26.0710	 852.928	    5
  26.0713	 852.948	    5
  26.0717	 852.967	    5
  26.0721	 852.987	    5
  26.0724	 853.007	    5
  26.0728	 853.026	    5
  26.0732	 853.046	    5
  26.0736	 853.065	    5
  26.0739	 853.085	    5
  26.0743	 853.104	    5
  26.0747	 853.124	    5
  26.0750	 853.144	    5
  26.0754	 853.163	    5
  26.0758	 853.183	    5
  26.0761	 853.202	    5
  26.0765	 853.222	    5
  26.0769	 853.241	    5
  26.0773	 853.261	    5
  26.0776	 853.280	    5
  26.0780	 853.300	    5
  26.0784	 853.320	    5
  26.0787	 853.339	    5
  26.0791	 853.359	    5
  26.0795	 853.378	    5
  26.0798	 853.398	    5
  26.0802	 853.417	    5
  26.0806	 853.437	    5
  26.0810	 853.457	    5
  26.0813	 853.476	    5
  26.0817	 853.496	    6
  26.0821	 853.515	    5
  26.0824	 853.535	    5
  26.0828	 853.554	    5
  26.0832	 853.574	    5
  26.0835	 853.594	    5
  26.0839	 853.613	    5
  26.0843	 853.633	    5
  26.0846	 853.652	    5
  26.0850	 853.672	    5
  26.0854	 853.691	    5
  26.0858	 853.711	    5
  26.0861	 853.731	    5
  26.0865	 853.750	    5
  26.0869	 853.770	    5
  26.0872	 853.789	    5
  26.0876	 853.809	    5
  26.0880	 853.828	    5
  26.0883	 853.848	    5
  26.0887	 853.867	    5
  26.0891	 853.887	    5
  26.0895	 853.907	    5
  26.0898	 853.926	    5
  26.0902	 853.946	    5
  26.0906	 853.965	    5
  26.0909	 853.985	    5
  26.0913	 854.004	    5
  26.0917	 854.024	    5
  26.0920	 854.044	    5
  26.0924	 854.063	    5
  26.0928	 854.083	    5
  26.0932	 854.102	    5
  26.0935	 854.122	    6
  26.0939	 854.141	    5
  26.0943	 854.161	    5
  26.0946	 854.181	    5
  26.0950	 854.200	    5
  26.0954	 854.220	    5
  26.0957	 854.239	    5
  26.0961	 854.259	    5
  26.0965	 854.278	    5
  26.0969	 854.298	    5
  26.0972	 854.317	    6
  26.0976	 854.337	    5
  26.0980	 854.357	    5
  26.0983	 854.376	    5
  26.0987	 854.396	    5
  26.0991	 854.415	    5
  26.0994	 854.435	    5
  26.0998	 854.454	    5
  26.1002	 854.474	    5
  26.1006	 854.494	    5
  26.1009	 854.513	    5
  26.1013	 854.533	    5
  26.1017	 854.552	    5
  26.1020	 854.572	    5
  26.1024	 854.591	    5
  26.1028	 854.611	    5
  26.1031	 854.631	    5
  26.1035	 854.650	    5
  26.1039	 854.670	    5
  26.1042	 854.689	    5
  26.1046	 854.709	    5
  26.1050	 854.728	    5
  26.1054	 854.748	    5
  26.1057	 854.767	    5
  26.1061	 854.787	    5
  26.1065	 854.807	    5
  26.1068	 854.826	    5
  26.1072	 854.846	    5
  26.1076	 854.865	    5
  26.1079	 854.885	    5
  26.1083	 854.904	    5
  26.1087	 854.924	    5
  26.1091	 854.944	    5
  26.1094	 854.963	    5
  26.1098	 854.983	    5
  26.1102	 855.002	    5
  26.1105	 855.022	    5
  26.1109	 855.041	    5
  26.1113	 855.061	    5
  26.1116	 855.081	    5
  26.1120	 855.100	    5
  26.1124	 855.120	    5
  26.1128	 855.139	    5
  26.1131	 855.159	    5
  26.1135	 855.178	    5
  26.1139	 855.198	    5
  26.1142	 855.218	    5
  26.1146	 855.237	    5
  26.1150	 855.257	    5
  26.1153	 855.276	    5
  26.1157	 855.296	    5
  26.1161	 855.315	    5
  26.1165	 855.335	    5
  26.1168	 855.354	    5
  26.1172	 855.374	    5
  26.1176	 855.394	    5
  26.1179	 855.413	    5
  26.1183	 855.433	    5
  26.1187	 855.452	    5
  26.1190	 855.472	    5
  26.1194	 855.491	    5
  26.1198	 855.511	    5
  26.1202	 855.531	    5
  26.1205	 855.550	    5
  26.1209	 855.570	    6
  26.1213	 855.589	    5
  26.1216	 855.609	    6
  26.1220	 855.628	    5
  26.1224	 855.648	    5
  26.1227	 855.668	    5
  26.1231	 855.687	    5
  26.1235	 855.707	    5
  26.1239	 855.726	    5
  26.1242	 855.746	    5
  26.1246	 855.765	    5
  26.1250	 855.785	    5
  26.1253	 855.804	    5
  26.1257	 855.824	    5
  26.1261	 855.844	    5
  26.1264	 855.863	    5
  26.1268	 855.883	    5
  26.1272	 855.902	    5
  26.1275	 855.922	    6
  26.1279	 855.941	    5
  26.1283	 855.961	    5
  26.1287	 855.981	    5
  26.1290	 856.000	    5
  26.1294	 856.020	    5
  26.1298	 856.039	    5
  26.1301	 856.059	    5
  26.1305	 856.078	    5
  26.1309	 856.098	    5
  26.1312	 856.118	    5
  26.1316	 856.137	    5
  26.1320	 856.157	    5
  26.1324	 856.176	    5
  26.1327	 856.196	    6
  26.1331	 856.215	    5
  26.1335	 856.235	    5
  26.1338	 856.255	    5
  26.1342	 856.274	    5
  26.1346	 856.294	    5
  26.1349	 856.313	    6
  26.1353	 856.333	    5
  26.1357	 856.352	    6
  26.1361	 856.372	    5
  26.1364	 856.391	    6
  26.1368	 856.411	    5
  26.1372	 856.431	    5
  26.1375	 856.450	    5
  26.1379	 856.470	    5
  26.1383	 856.489	    5
  26.1386	 856.509	    5
  26.1390	 856.528	    5
  26.1394	 856.548	    5
  26.1398	 856.568	    5
  26.1401	 856.587	    5
  26.1405	 856.607	    5
  26.1409	 856.626	    5
  26.1412	 856.646	    5
  26.1416	 856.665	    6
  26.1420	 856.685	    5
  26.1423	 856.705	    6
  26.1427	 856.724	    5
  26.1431	 856.744	    5
  26.1435	 856.763	    5
  26.1438	 856.783	    6
  26.1442	 856.802	    5
  26.1446	 856.822	    5
  26.1449	 856.841	    5
  26.1453	 856.861	    5
  26.1457	 856.881	    5
  26.1460	 856.900	    5
  26.1464	 856.920	    5
  26.1468	 856.939	    5
  26.1472	 856.959	    5
  26.1475	 856.978	    6
  26.1479	 856.998	    5
  26.1483	 857.018	    6
  26.1486	 857.037	    5
  26.1490	 857.057	    5
  26.1494	 857.076	    5
  26.1497	 857.096	    5
  26.1501	 857.115	    5
  26.1505	 857.135	    6
  26.1508	 857.155	    5
  26.1512	 857.174	    6
  26.1516	 857.194	    5
  26.1520	 857.213	    6
  26.1523	 857.233	    5
  26.1527	 857.252	    5
  26.1531	 857.272	    5
  26.1534	 857.292	    5
  26.1538	 857.311	    5
  26.1542	 857.331	    5
  26.1545	 857.350	    5
  26.1549	 857.370	    5
  26.1553	 857.389	    5
  26.1557	 857.409	    5
  26.1560	 857.428	    5
  26.1564	 857.448	    5
  26.1568	 857.468	    5
  26.1571	 857.487	    5
  26.1575	 857.507	    5
  26.1579	 857.526	    5
  26.1582	 857.546	    5
  26.1586	 857.565	    5
  26.1590	 857.585	    5
  26.1594	 857.605	    5
  26.1597	 857.624	    5
  26.1601	 857.644	    5
  26.1605	 857.663	    5
  26.1608	 857.683	    5
  26.1612	 857.702	    5
  26.1616	 857.722	    5
  26.1619	 857.742	    5
  26.1623	 857.761	    5
  26.1627	 857.781	    5
  26.1631	 857.800	    5
  26.1634	 857.820	    5
  26.1638	 857.839	    5
  26.1642	 857.859	    5
  26.1645	 857.878	    5
  26.1649	 857.898	    5
  26.1653	 857.918	    5
  26.1656	 857.937	    5
  26.1660	 857.957	    5
  26.1664	 857.976	    5
  26.1668	 857.996	    5
  26.1671	 858.015	    5
  26.1675	 858.035	    5
  26.1679	 858.055	    5
  26.1682	 858.074	    5
  26.1686	 858.094	    5
  26.1690	 858.113	    5
  26.1693	 858.133	    5
  26.1697	 858.152	    5
  26.1701	 858.172	    5
  26.1705	 858.192	    5
  26.1708	 858.211	    5
  26.1712	 858.231	    6
  26.1716	 858.250	    5
  26.1719	 858.270	    5
  26.1723	 858.289	    5
  26.1727	 858.309	    5
  26.1730	 858.329	    5
  26.1734	 858.348	    5
  26.1738	 858.368	    5
  26.1741	 858.387	    5
  26.1745	 858.407	    5
  26.1749	 858.426	    5
  26.1753	 858.446	    5
  26.1756	 858.465	    5
  26.1760	 858.485	    5
  26.1764	 858.505	    5
  26.1767	 858.524	    5
  26.1771	 858.544	    5
  26.1775	 858.563	    5
  26.1778	 858.583	    5
  26.1782	 858.602	    5
  26.1786	 858.622	    5
  26.1790	 858.642	    5
  26.1793	 858.661	    5
  26.1797	 858.681	    5
  26.1801	 858.700	    6
  26.1804	 858.720	    5
  26.1808	 858.739	    6
  26.1812	 858.759	    5
  26.1815	 858.779	    6
  26.1819	 858.798	    5
  26.1823	 858.818	    5
  26.1827	 858.837	    5
  26.1830	 858.857	    5
  26.1834	 858.876	    5
  26.1838	 858.896	    5
  26.1841	 858.915	    5
  26.1845	 858.935	    5
  26.1849	 858.955	    5
  26.1852	 858.974	    5
  26.1856	 858.994	    5
  26.1860	 859.013	    5
  26.1864	 859.033	    5
  26.1867	 859.052	    5
  26.1871	 859.072	    5
  26.1875	 859.092	    5
  26.1878	 859.111	    5
  26.1882	 859.131	    5
  26.1886	 859.150	    5
  26.1889	 859.170	    5
  26.1893	 859.189	    5
  26.1897	 859.209	    5
  26.1901	 859.229	    5
  26.1904	 859.248	    5
  26.1908	 859.268	    5
  26.1912	 859.287	    5
  26.1915	 859.307	    5
  26.1919	 859.326	    6
  26.1923	 859.346	    5
  26.1926	 859.366	    5
  26.1930	 859.385	    5
  26.1934	 859.405	    6
  26.1938	 859.424	    5
  26.1941	 859.444	    5
  26.1945	 859.463	    5
  26.1949	 859.483	    5
  26.1952	 859.502	    5
  26.1956	 859.522	    5
  26.1960	 859.542	    5
  26.1963	 859.561	    5
  26.1967	 859.581	    5
  26.1971	 859.600	    5
  26.1974	 859.620	    5
  26.1978	 859.639	    5
  26.1982	 859.659	    5
  26.1986	 859.679	    5
  26.1989	 859.698	    5
  26.1993	 859.718	    5
  26.1997	 859.737	    5
  26.2000	 859.757	    5
  26.2004	 859.776	    5
  26.2008	 859.796	    5
  26.2011	 859.816	    5
  26.2015	 859.835	    5
  26.2019	 859.855	    5
  26.2023	 859.874	    5
  26.2026	 859.894	    5
  26.2030	 859.913	    5
  26.2034	 859.933	    5
  26.2037	 859.952	    5
  26.2041	 859.972	    5
  26.2045	 859.992	    5
  26.2048	 860.011	    5
  26.2052	 860.031	    5
  26.2056	 860.050	    5
  26.2060	 860.070	    5
  26.2063	 860.089	    5
  26.2067	 860.109	    5
  26.2071	 860.129	    5
  26.2074	 860.148	    5
  26.2078	 860.168	    5
  26.2082	 860.187	    5
  26.2085	 860.207	    5
  26.2089	 860.226	    5
  26.2093	 860.246	    5
  26.2097	 860.266	    5
  26.2100	 860.285	    5
  26.2104	 860.305	    5
  26.2108	 860.324	    5
  26.2111	 860.344	    5
  26.2115	 860.363	    5
  26.2119	 860.383	    5
  26.2122	 860.402	    5
  26.2126	 860.422	    5
  26.2130	 860.442	    5
  26.2134	 860.461	    5
  26.2137	 860.481	    5
  26.2141	 860.500	    5
  26.2145	 860.520	    5
  26.2148	 860.539	    5
  26.2152	 860.559	    5
  26.2156	 860.579	    5
  26.2159	 860.598	    5
  26.2163	 860.618	    5
  26.2167	 860.637	    5
  26.2171	 860.657	    5
  26.2174	 860.676	    5
  26.2178	 860.696	    5
  26.2182	 860.716	    5
  26.2185	 860.735	    5
  26.2189	 860.755	    5
  26.2193	 860.774	    5
  26.2196	 860.794	    5
  26.2200	 860.813	    5
  26.2204	 860.833	    5
  26.2207	 860.853	    5
  26.2211	 860.872	    5
  26.2215	 860.892	    5
  26.2219	 860.911	    5
  26.2222	 860.931	    5
  26.2226	 860.950	    5
  26.2230	 860.970	    5
  26.2233	 860.989	    5
  26.2237	 861.009	    5
  26.2241	 861.029	    5
  26.2244	 861.048	    5
  26.2248	 861.068	    5
  26.2252	 861.087	    5
  26.2256	 861.107	    5
  26.2259	 861.126	    5
  26.2263	 861.146	    5
  26.2267	 861.166	    5
  26.2270	 861.185	    5
  26.2274	 861.205	    5
  26.2278	 861.224	    5
  26.2281	 861.244	    5
  26.2285	 861.263	    5
  26.2289	 861.283	    5
  26.2293	 861.303	    5
  26.2296	 861.322	    5
  26.2300	 861.342	    5
  26.2304	 861.361	    5
  26.2307	 861.381	    5
  26.2311	 861.400	    5
  26.2315	 861.420	    5
  26.2318	 861.439	    5
  26.2322	 861.459	    5
  26.2326	 861.479	    5
  26.2330	 861.498	    5
  26.2333	 861.518	    5
  26.2337	 861.537	    5
  26.2341	 861.557	    5
  26.2344	 861.576	    5
  26.2348	 861.596	    5
  26.2352	 861.616	    5
  26.2355	 861.635	    5
  26.2359	 861.655	    5
  26.2363	 861.674	    5
  26.2367	 861.694	    5
  26.2370	 861.713	    5
  26.2374	 861.733	    5
  26.2378	 861.753	    5
  26.2381	 861.772	    5
  26.2385	 861.792	    5
  26.2389	 861.811	    5
  26.2392	 861.831	    5
  26.2396	 861.850	    5
  26.2400	 861.870	    5
  26.2404	 861.890	    5
  26.2407	 861.909	    5
  26.2411	 861.929	    5
  26.2415	 861.948	    5
  26.2418	 861.968	    5
  26.2422	 861.987	    5
  26.2426	 862.007	    5
  26.2429	 862.026	    5
  26.2433	 862.046	    5
  26.2437	 862.066	    5
  26.2440	 862.085	    5
  26.2444	 862.105	    5
  26.2448	 862.124	    5
  26.2452	 862.144	    5
  26.2455	 862.163	    5
  26.2459	 862.183	    5
  26.2463	 862.203	    5
  26.2466	 862.222	    5
  26.2470	 862.242	    5
  26.2474	 862.261	    5
  26.2477	 862.281	    5
  26.2481	 862.300	    5
  26.2485	 862.320	    5
  26.2489	 862.340	    5
  26.2492	 862.359	    5
  26.2496	 862.379	    5
  26.2500	 862.398	    5
  26.2503	 862.418	    5
  26.2507	 862.437	    5
  26.2511	 862.457	    5
  26.2514	 862.476	    5
  26.2518	 862.496	    5
  26.2522	 862.516	    5
  26.2526	 862.535	    5
  26.2529	 862.555	    5
  26.2533	 862.574	    5
  26.2537	 862.594	    5
  26.2540	 862.613	    5
  26.2544	 862.633	    5
  26.2548	 862.653	    5
  26.2551	 862.672	    5
  26.2555	 862.692	    5
  26.2559	 862.711	    5
  26.2563	 862.731	    5
  26.2566	 862.750	    5
  26.2570	 862.770	    5
  26.2574	 862.790	    5
  26.2577	 862.809	    5
  26.2581	 862.829	    5
  26.2585	 862.848	    5
  26.2588	 862.868	    5
  26.2592	 862.887	    5
  26.2596	 862.907	    5
  26.2600	 862.927	    5
  26.2603	 862.946	    5
  26.2607	 862.966	    5
  26.2611	 862.985	    5
  26.2614	 863.005	    5
  26.2618	 863.024	    5
  26.2622	 863.044	    5
  26.2625	 863.063	    5
  26.2629	 863.083	    5
  26.2633	 863.103	    5
  26.2637	 863.122	    5
  26.2640	 863.142	    5
  26.2644	 863.161	    5
  26.2648	 863.181	    5
  26.2651	 863.200	    5
  26.2655	 863.220	    5
  26.2659	 863.240	    5
  26.2662	 863.259	    5
  26.2666	 863.279	    5
  26.2670	 863.298	    5
  26.2673	 863.318	    5
  26.2677	 863.337	    5
  26.2681	 863.357	    5
  26.2685	 863.377	    5
  26.2688	 863.396	    5
  26.2692	 863.416	    5
  26.2696	 863.435	    5
  26.2699	 863.455	    5
  26.2703	 863.474	    5
  26.2707	 863.494	    5
  26.2710	 863.513	    5
  26.2714	 863.533	    5
  26.2718	 863.553	    5
  26.2722	 863.572	    5
  26.2725	 863.592	    5
  26.2729	 863.611	    5
  26.2733	 863.631	    5
  26.2736	 863.650	    5
  26.2740	 863.670	    5
  26.2744	 863.690	    5
  26.2747	 863.709	    5
  26.2751	 863.729	    5
  26.2755	 863.748	    5
  26.2759	 863.768	    5
  26.2762	 863.787	    5
  26.2766	 863.807	    5
  26.2770	 863.827	    5
  26.2773	 863.846	    5
  26.2777	 863.866	    5
  26.2781	 863.885	    5
  26.2784	 863.905	    5
  26.2788	 863.924	    5
  26.2792	 863.944	    5
  26.2796	 863.964	    5
  26.2799	 863.983	    5
  26.2803	 864.003	    5
  26.2807	 864.022	    5
  26.2810	 864.042	    5
  26.2814	 864.061	    5
  26.2818	 864.081	    5
  26.2821	 864.100	    5
  26.2825	 864.120	    5
  26.2829	 864.140	    5
  26.2833	 864.159	    5
  26.2836	 864.179	    5
  26.2840	 864.198	    5
  26.2844	 864.218	    5
  26.2847	 864.237	    5
  26.2851	 864.257	    5
  26.2855	 864.277	    5
  26.2858	 864.296	    5
  26.2862	 864.316	    5
  26.2866	 864.335	    5
  26.2870	 864.355	    5
  26.2873	 864.374	    5
  26.2877	 864.394	    5
  26.2881	 864.414	    5
  26.2884	 864.433	    5
  26.2888	 864.453	    5
  26.2892	 864.472	    5
  26.2895	 864.492	    5
  26.2899	 864.511	    5
  26.2903	 864.531	    5
  26.2906	 864.550	    5
  26.2910	 864.570	    5
  26.2914	 864.590	    5
  26.2918	 864.609	    5
  26.2921	 864.629	    5
  26.2925	 864.648	    5
  26.2929	 864.668	    5
  26.2932	 864.687	    5
  26.2936	 864.707	    5
  26.2940	 864.727	    5
  26.2943	 864.746	    5
  26.2947	 864.766	    5
  26.2951	 864.785	    5
  26.2955	 864.805	    5
  26.2958	 864.824	    5
  26.2962	 864.844	    5
  26.2966	 864.864	    5
  26.2969	 864.883	    5
  26.2973	 864.903	    5
  26.2977	 864.922	    5
  26.2980	 864.942	    5
  26.2984	 864.961	    5
  26.2988	 864.981	    5
  26.2992	 865.000	    5
  26.2995	 865.020	    5
  26.2999	 865.040	    5
  26.3003	 865.059	    5
  26.3006	 865.079	    5
  26.3010	 865.098	    5
  26.3014	 865.118	    5
  26.3017	 865.137	    5
  26.3021	 865.157	    5
  26.3025	 865.177	    5
  26.3029	 865.196	    5
  26.3032	 865.216	    5
  26.3036	 865.235	    5
  26.3040	 865.255	    5
  26.3043	 865.274	    5
  26.3047	 865.294	    5
  26.3051	 865.314	    5
  26.3054	 865.333	    5
  26.3058	 865.353	    5
  26.3062	 865.372	    5
  26.3066	 865.392	    5
  26.3069	 865.411	    5
  26.3073	 865.431	    5
  26.3077	 865.451	    5
  26.3080	 865.470	    5
  26.3084	 865.490	    5
  26.3088	 865.509	    5
  26.3091	 865.529	    5
  26.3095	 865.548	    5
  26.3099	 865.568	    5
  26.3103	 865.587	    5
  26.3106	 865.607	    5
  26.3110	 865.627	    5
  26.3114	 865.646	    5
  26.3117	 865.666	    5
  26.3121	 865.685	    5
  26.3125	 865.705	    5
  26.3128	 865.724	    5
  26.3132	 865.744	    5
  26.3136	 865.764	    5
  26.3139	 865.783	    5
  26.3143	 865.803	    5
  26.3147	 865.822	    5
  26.3151	 865.842	    5
  26.3154	 865.861	    5
  26.3158	 865.881	    5
  26.3162	 865.901	    5
  26.3165	 865.920	    5
  26.3169	 865.940	    5
  26.3173	 865.959	    5
  26.3176	 865.979	    5
  26.3180	 865.998	    5
  26.3184	 866.018	    5
  26.3188	 866.037	    5
  26.3191	 866.057	    5
  26.3195	 866.077	    5
  26.3199	 866.096	    5
  26.3202	 866.116	    5
  26.3206	 866.135	    5
  26.3210	 866.155	    5
  26.3213	 866.174	    5
  26.3217	 866.194	    5
  26.3221	 866.214	    5
  26.3225	 866.233	    5
  26.3228	 866.253	    5
  26.3232	 866.272	    5
  26.3236	 866.292	    5
  26.3239	 866.311	    5
  26.3243	 866.331	    5
  26.3247	 866.351	    5
  26.3250	 866.370	    5
  26.3254	 866.390	    5
  26.3258	 866.409	    5
  26.3262	 866.429	    5
  26.3265	 866.448	    5
  26.3269	 866.468	    5
  26.3273	 866.488	    5
  26.3276	 866.507	    5
  26.3280	 866.527	    5
  26.3284	 866.546	    5
  26.3287	 866.566	    5
  26.3291	 866.585	    5
  26.3295	 866.605	    5
  26.3299	 866.624	    5
  26.3302	 866.644	    5
  26.3306	 866.664	    5
  26.3310	 866.683	    5
  26.3313	 866.703	    5
  26.3317	 866.722	    5
  26.3321	 866.742	    5
  26.3324	 866.761	    5
  26.3328	 866.781	    5
  26.3332	 866.801	    5
  26.3336	 866.820	    5
  26.3339	 866.840	    5
  26.3343	 866.859	    5
  26.3347	 866.879	    5
  26.3350	 866.898	    5
  26.3354	 866.918	    5
  26.3358	 866.938	    5
  26.3361	 866.957	    5
  26.3365	 866.977	    5
  26.3369	 866.996	    5
  26.3372	 867.016	    5
  26.3376	 867.035	    5
  26.3380	 867.055	    5
  26.3384	 867.074	    5
  26.3387	 867.094	    5
  26.3391	 867.114	    5
  26.3395	 867.133	    5
  26.3398	 867.153	    5
  26.3402	 867.172	    5
  26.3406	 867.192	    5
  26.3409	 867.211	    5
  26.3413	 867.231	    5
  26.3417	 867.251	    5
  26.3421	 867.270	    5
  26.3424	 867.290	    5
  26.3428	 867.309	    5
  26.3432	 867.329	    5
  26.3435	 867.348	    5
  26.3439	 867.368	    5
  26.3443	 867.388	    5
  26.3446	 867.407	    5
  26.3450	 867.427	    5
  26.3454	 867.446	    5
  26.3458	 867.466	    5
  26.3461	 867.485	    5
  26.3465	 867.505	    5
  26.3469	 867.525	    5
  26.3472	 867.544	    5
  26.3476	 867.564	    5
  26.3480	 867.583	    5
  26.3483	 867.603	    5
  26.3487	 867.622	    5
  26.3491	 867.642	    5
  26.3495	 867.661	    5
  26.3498	 867.681	    5
  26.3502	 867.701	    5
  26.3506	 867.720	    5
  26.3509	 867.740	    5
  26.3513	 867.759	    5
  26.3517	 867.779	    5
  26.3520	 867.798	    5
  26.3524	 867.818	    5
  26.3528	 867.838	    5
  26.3532	 867.857	    5
  26.3535	 867.877	    5
  26.3539	 867.896	    5
  26.3543	 867.916	    5
  26.3546	 867.935	    5
  26.3550	 867.955	    5
  26.3554	 867.975	    5
  26.3557	 867.994	    5
  26.3561	 868.014	    5
  26.3565	 868.033	    5
  26.3568	 868.053	    5
  26.3572	 868.072	    5
  26.3576	 868.092	    5
  26.3580	 868.111	    5
  26.3583	 868.131	    5
  26.3587	 868.151	    5
  26.3591	 868.170	    5
  26.3594	 868.190	    5
  26.3598	 868.209	    5
  26.3602	 868.229	    5
  26.3605	 868.248	    5
  26.3609	 868.268	    5
  26.3613	 868.288	    5
  26.3617	 868.307	    5
  26.3620	 868.327	    5
  26.3624	 868.346	    5
  26.3628	 868.366	    5
  26.3631	 868.385	    5
  26.3635	 868.405	    5
  26.3639	 868.425	    5
  26.3642	 868.444	    5
  26.3646	 868.464	    5
  26.3650	 868.483	    5
  26.3654	 868.503	    5
  26.3657	 868.522	    5
  26.3661	 868.542	    5
  26.3665	 868.562	    5
  26.3668	 868.581	    5
  26.3672	 868.601	    5
  26.3676	 868.620	    5
  26.3679	 868.640	    5
  26.3683	 868.659	    5
  26.3687	 868.679	    5
  26.3691	 868.698	    5
  26.3694	 868.718	    5
  26.3698	 868.738	    5
  26.3702	 868.757	    5
  26.3705	 868.777	    5
  26.3709	 868.796	    5
  26.3713	 868.816	    5
  26.3716	 868.835	    5
  26.3720	 868.855	    5
  26.3724	 868.875	    5
  26.3728	 868.894	    5
  26.3731	 868.914	    5
  26.3735	 868.933	    5
  26.3739	 868.953	    5
  26.3742	 868.972	    5
  26.3746	 868.992	    5
  26.3750	 869.012	    5
  26.3753	 869.031	    5
  26.3757	 869.051	    5
  26.3761	 869.070	    5
  26.3765	 869.090	    5
  26.3768	 869.109	    5
  26.3772	 869.129	    5
  26.3776	 869.148	    5
  26.3779	 869.168	    5
  26.3783	 869.188	    5
  26.3787	 869.207	    5
  26.3790	 869.227	    5
  26.3794	 869.246	    5
  26.3798	 869.266	    5
  26.3801	 869.285	    5
  26.3805	 869.305	    5
  26.3809	 869.325	    5
  26.3813	 869.344	    5
  26.3816	 869.364	    5
  26.3820	 869.383	    5
  26.3824	 869.403	    5
  26.3827	 869.422	    5
  26.3831	 869.442	    5
  26.3835	 869.462	    5
  26.3838	 869.481	    5
  26.3842	 869.501	    5
  26.3846	 869.520	    5
  26.3850	 869.540	    5
  26.3853	 869.559	    5
  26.3857	 869.579	    5
  26.3861	 869.598	    5
  26.3864	 869.618	    5
  26.3868	 869.638	    5
  26.3872	 869.657	    5
  26.3875	 869.677	    5
  26.3879	 869.696	    5
  26.3883	 869.716	    5
  26.3887	 869.735	    5
  26.3890	 869.755	    5
  26.3894	 869.775	    5
  26.3898	 869.794	    5
  26.3901	 869.814	    5
  26.3905	 869.833	    5
  26.3909	 869.853	    5
  26.3912	 869.872	    5
  26.3916	 869.892	    5
  26.3920	 869.912	    5
  26.3924	 869.931	    5
  26.3927	 869.951	    5
  26.3931	 869.970	    5
  26.3935	 869.990	    5
  26.3938	 870.009	    5
  26.3942	 870.029	    5
  26.3946	 870.049	    5
  26.3949	 870.068	    5
  26.3953	 870.088	    5
  26.3957	 870.107	    5
  26.3961	 870.127	    5
  26.3964	 870.146	    5
  26.3968	 870.166	    5
  26.3972	 870.185	    5
  26.3975	 870.205	    5
  26.3979	 870.225	    5
  26.3983	 870.244	    5
  26.3986	 870.264	    5
  26.3990	 870.283	    5
  26.3994	 870.303	    5
  26.3998	 870.322	    5
  26.4001	 870.342	    5
  26.4005	 870.362	    5
  26.4009	 870.381	    5
  26.4012	 870.401	    5
  26.4016	 870.420	    5
  26.4020	 870.440	    5
  26.4023	 870.459	    5
  26.4027	 870.479	    5
  26.4031	 870.499	    5
  26.4034	 870.518	    5
  26.4038	 870.538	    5
  26.4042	 870.557	    5
  26.4046	 870.577	    5
  26.4049	 870.596	    5
  26.4053	 870.616	    5
  26.4057	 870.635	    5
  26.4060	 870.655	    5
  26.4064	 870.675	    5
  26.4068	 870.694	    5
  26.4071	 870.714	    5
  26.4075	 870.733	    5
  26.4079	 870.753	    5
  26.4083	 870.772	    5
  26.4086	 870.792	    5
  26.4090	 870.812	    5
  26.4094	 870.831	    5
  26.4097	 870.851	    5
  26.4101	 870.870	    5
  26.4105	 870.890	    5
  26.4108	 870.909	    5
  26.4112	 870.929	    5
  26.4116	 870.949	    5
  26.4120	 870.968	    5
  26.4123	 870.988	    5
  26.4127	 871.007	    5
  26.4131	 871.027	    5
  26.4134	 871.046	    5
  26.4138	 871.066	    5
  26.4142	 871.086	    5
  26.4145	 871.105	    5
  26.4149	 871.125	    5
  26.4153	 871.144	    5
  26.4157	 871.164	    5
  26.4160	 871.183	    5
  26.4164	 871.203	    5
  26.4168	 871.222	    5
  26.4171	 871.242	    5
  26.4175	 871.262	    5
  26.4179	 871.281	    5
  26.4182	 871.301	    5
  26.4186	 871.320	    5
  26.4190	 871.340	    5
  26.4194	 871.359	    5
  26.4197	 871.379	    5
  26.4201	 871.399	    5
  26.4205	 871.418	    5
  26.4208	 871.438	    5
  26.4212	 871.457	    5
  26.4216	 871.477	    5
  26.4219	 871.496	    5
  26.4223	 871.516	    5
  26.4227	 871.536	    5
  26.4231	 871.555	    5
  26.4234	 871.575	    5
  26.4238	 871.594	    5
  26.4242	 871.614	    5
  26.4245	 871.633	    5
  26.4249	 871.653	    5
  26.4253	 871.672	    5
  26.4256	 871.692	    5
  26.4260	 871.712	    5
  26.4264	 871.731	    5
  26.4267	 871.751	    5
  26.4271	 871.770	    5
  26.4275	 871.790	    5
  26.4279	 871.809	    5
  26.4282	 871.829	    5
  26.4286	 871.849	    5
  26.4290	 871.868	    5
  26.4293	 871.888	    5
  26.4297	 871.907	    5
  26.4301	 871.927	    5
  26.4304	 871.946	    5
  26.4308	 871.966	    5
  26.4312	 871.986	    5
  26.4316	 872.005	    5
  26.4319	 872.025	    5
  26.4323	 872.044	    5
  26.4327	 872.064	    5
  26.4330	 872.083	    5
  26.4334	 872.103	    5
  26.4338	 872.123	    5
  26.4341	 872.142	    5
  26.4345	 872.162	    5
  26.4349	 872.181	    5
  26.4353	 872.201	    5
  26.4356	 872.220	    5
  26.4360	 872.240	    5
  26.4364	 872.259	    5
  26.4367	 872.279	    5
  26.4371	 872.299	    5
  26.4375	 872.318	    5
  26.4378	 872.338	    5
  26.4382	 872.357	    5
  26.4386	 872.377	    5
  26.4390	 872.396	    5
  26.4393	 872.416	    5
  26.4397	 872.436	    5
  26.4401	 872.455	    5
  26.4404	 872.475	    5
  26.4408	 872.494	    5
  26.4412	 872.514	    5
  26.4415	 872.533	    5
  26.4419	 872.553	    5
  26.4423	 872.573	    5
  26.4427	 872.592	    5
  26.4430	 872.612	    5
  26.4434	 872.631	    5
  26.4438	 872.651	    5
  26.4441	 872.670	    5
  26.4445	 872.690	    5
  26.4449	 872.709	    5
  26.4452	 872.729	    5
  26.4456	 872.749	    5
  26.4460	 872.768	    5
  26.4464	 872.788	    5
  26.4467	 872.807	    5
  26.4471	 872.827	    5
  26.4475	 872.846	    5
  26.4478	 872.866	    5
  26.4482	 872.886	    5
  26.4486	 872.905	    5
  26.4489	 872.925	    5
  26.4493	 872.944	    5
  26.4497	 872.964	    5
  26.4500	 872.983	    5
  26.4504	 873.003	    5
  26.4508	 873.023	    5
  26.4512	 873.042	    5
  26.4515	 873.062	    5
  26.4519	 873.081	    5
  26.4523	 873.101	    5
  26.4526	 873.120	    5
  26.4530	 873.140	    5
  26.4534	 873.160	    5
  26.4537	 873.179	    5
  26.4541	 873.199	    5
  26.4545	 873.218	    5
  26.4549	 873.238	    5
  26.4552	 873.257	    5
  26.4556	 873.277	    5
  26.4560	 873.296	    5
  26.4563	 873.316	    5
  26.4567	 873.336	    5
  26.4571	 873.355	    5
  26.4574	 873.375	    5
  26.4578	 873.394	    5
  26.4582	 873.414	    5
  26.4586	 873.433	    5
  26.4589	 873.453	    5
  26.4593	 873.473	    5
  26.4597	 873.492	    5
  26.4600	 873.512	    5
  26.4604	 873.531	    5
  26.4608	 873.551	    5
  26.4611	 873.570	    5
  26.4615	 873.590	    5
  26.4619	 873.610	    5
  26.4623	 873.629	    5
  26.4626	 873.649	    5
  26.4630	 873.668	    5
  26.4634	 873.688	    5
  26.4637	 873.707	    5
  26.4641	 873.727	    5
  26.4645	 873.746	    5
  26.4648	 873.766	    5
  26.4652	 873.786	    5
  26.4656	 873.805	    5
  26.4660	 873.825	    5
  26.4663	 873.844	    5
  26.4667	 873.864	    5
  26.4671	 873.883	    5
  26.4674	 873.903	    5
  26.4678	 873.923	    5
  26.4682	 873.942	    5
  26.4685	 873.962	    5
  26.4689	 873.981	    5
  26.4693	 874.001	    5
  26.4697	 874.020	    5
  26.4700	 874.040	    5
  26.4704	 874.060	    5
  26.4708	 874.079	    5
  26.4711	 874.099	    5
  26.4715	 874.118	    5
  26.4719	 874.138	    5
  26.4722	 874.157	    5
  26.4726	 874.177	    5
  26.4730	 874.197	    5
  26.4733	 874.216	    5
  26.4737	 874.236	    5
  26.4741	 874.255	    5
  26.4745	 874.275	    5
  26.4748	 874.294	    5
  26.4752	 874.314	    5
  26.4756	 874.333	    5
  26.4759	 874.353	    5
  26.4763	 874.373	    5
  26.4767	 874.392	    5
  26.4770	 874.412	    5
  26.4774	 874.431	    5
  26.4778	 874.451	    5
  26.4782	 874.470	    5
  26.4785	 874.490	    5
  26.4789	 874.510	    5
  26.4793	 874.529	    5
  26.4796	 874.549	    5
  26.4800	 874.568	    5
  26.4804	 874.588	    5
  26.4807	 874.607	    5
  26.4811	 874.627	    5
  26.4815	 874.647	    5
  26.4819	 874.666	    5
  26.4822	 874.686	    5
  26.4826	 874.705	    5
  26.4830	 874.725	    5
  26.4833	 874.744	    5
  26.4837	 874.764	    5
  26.4841	 874.783	    5
  26.4844	 874.803	    5
  26.4848	 874.823	    5
  26.4852	 874.842	    5
  26.4856	 874.862	    5
  26.4859	 874.881	    5
  26.4863	 874.901	    5
  26.4867	 874.920	    5
  26.4870	 874.940	    5
  26.4874	 874.960	    5
  26.4878	 874.979	    5
  26.4881	 874.999	    5
  26.4885	 875.018	    5
  26.4889	 875.038	    5
  26.4893	 875.057	    5
  26.4896	 875.077	    5
  26.4900	 875.097	    5
  26.4904	 875.116	    5
  26.4907	 875.136	    5
  26.4911	 875.155	    5
  26.4915	 875.175	    5
  26.4918	 875.194	    5
  26.4922	 875.214	    5
  26.4926	 875.233	    5
  26.4930	 875.253	    5
  26.4933	 875.273	    5
  26.4937	 875.292	    5
  26.4941	 875.312	    5
  26.4944	 875.331	    5
  26.4948	 875.351	    5
  26.4952	 875.370	    5
  26.4955	 875.390	    5
  26.4959	 875.410	    5
  26.4963	 875.429	    5
  26.4966	 875.449	    5
  26.4970	 875.468	    5
  26.4974	 875.488	    5
  26.4978	 875.507	    5
  26.4981	 875.527	    5
  26.4985	 875.547	    5
  26.4989	 875.566	    5
  26.4992	 875.586	    5
  26.4996	 875.605	    5
