d / dilky	  d / nm	signal
  23.9999	 743.359	    5
  24.0002	 743.378	    5
  24.0006	 743.398	    5
  24.0010	 743.418	    5
  24.0013	 743.437	    4
  24.0017	 743.457	    5
  24.0021	 743.476	    5
  24.0025	 743.496	    5
  24.0028	 743.515	    5
  24.0032	 743.535	    5
  24.0036	 743.555	    5
  24.0039	 743.574	    5
  24.0043	 743.594	    5
  24.0047	 743.613	    5
  24.0050	 743.633	    5
  24.0054	 743.652	    5
  24.0058	 743.672	    5
  24.0062	 743.692	    5
  24.0065	 743.711	    5
  24.0069	 743.731	    5
  24.0073	 743.750	    5
  24.0076	 743.770	    5
  24.0080	 743.789	    5
  24.0084	 743.809	    5
  24.0087	 743.828	    5
  24.0091	 743.848	    5
  24.0095	 743.868	    5
  24.0099	 743.887	    5
  24.0102	 743.907	    5
  24.0106	 743.926	    5
  24.0110	 743.946	    5
  24.0113	 743.965	    5
  24.0117	 743.985	    5
  24.0121	 744.005	    5
  24.0124	 744.024	    5
  24.0128	 744.044	    5
  24.0132	 744.063	    5
  24.0135	 744.083	    5
  24.0139	 744.102	    5
  24.0143	 744.122	    5
  24.0147	 744.142	    5
  24.0150	 744.161	    5
  24.0154	 744.181	    5
  24.0158	 744.200	    5
  24.0161	 744.220	    4
  24.0165	 744.239	    5
  24.0169	 744.259	    5
  24.0172	 744.279	    5
  24.0176	 744.298	    5
  24.0180	 744.318	    5
  24.0184	 744.337	    5
  24.0187	 744.357	    5
  24.0191	 744.376	    5
  24.0195	 744.396	    5
  24.0198	 744.415	    5
  24.0202	 744.435	    5
  24.0206	 744.455	    5
  24.0209	 744.474	    5
  24.0213	 744.494	    5
  24.0217	 744.513	    5
  24.0221	 744.533	    5
  24.0224	 744.552	    5
  24.0228	 744.572	    5
  24.0232	 744.592	    5
  24.0235	 744.611	    5
  24.0239	 744.631	    5
  24.0243	 744.650	    5
  24.0246	 744.670	    5
  24.0250	 744.689	    5
  24.0254	 744.709	    5
  24.0258	 744.729	    5
  24.0261	 744.748	    5
  24.0265	 744.768	    5
  24.0269	 744.787	    5
  24.0272	 744.807	    4
  24.0276	 744.826	    5
  24.0280	 744.846	    5
  24.0283	 744.865	    5
  24.0287	 744.885	    5
  24.0291	 744.905	    5
  24.0295	 744.924	    4
  24.0298	 744.944	    5
  24.0302	 744.963	    5
  24.0306	 744.983	    5
  24.0309	 745.002	    5
  24.0313	 745.022	    5
  24.0317	 745.042	    5
  24.0320	 745.061	    5
  24.0324	 745.081	    5
  24.0328	 745.100	    5
  24.0332	 745.120	    5
  24.0335	 745.139	    5
  24.0339	 745.159	    5
  24.0343	 745.179	    5
  24.0346	 745.198	    5
  24.0350	 745.218	    5
  24.0354	 745.237	    5
  24.0357	 745.257	    5
  24.0361	 745.276	    5
  24.0365	 745.296	    5
  24.0368	 745.315	    5
  24.0372	 745.335	    5
  24.0376	 745.355	    5
  24.0380	 745.374	    5
  24.0383	 745.394	    5
  24.0387	 745.413	    5
  24.0391	 745.433	    5
  24.0394	 745.452	    5
  24.0398	 745.472	    5
  24.0402	 745.492	    5
  24.0405	 745.511	    5
  24.0409	 745.531	    5
  24.0413	 745.550	    5
  24.0417	 745.570	    5
  24.0420	 745.589	    5
  24.0424	 745.609	    5
  24.0428	 745.629	    5
  24.0431	 745.648	    5
  24.0435	 745.668	    5
  24.0439	 745.687	    5
  24.0442	 745.707	    5
  24.0446	 745.726	    5
  24.0450	 745.746	    5
  24.0454	 745.766	    5
  24.0457	 745.785	    4
  24.0461	 745.805	    5
  24.0465	 745.824	    5
  24.0468	 745.844	    5
  24.0472	 745.863	    5
  24.0476	 745.883	    5
  24.0479	 745.902	    5
  24.0483	 745.922	    5
  24.0487	 745.942	    5
  24.0491	 745.961	    5
  24.0494	 745.981	    5
  24.0498	 746.000	    5
  24.0502	 746.020	    5
  24.0505	 746.039	    5
  24.0509	 746.059	    5
  24.0513	 746.079	    5
  24.0516	 746.098	    5
  24.0520	 746.118	    5
  24.0524	 746.137	    5
  24.0528	 746.157	    5
  24.0531	 746.176	    5
  24.0535	 746.196	    5
  24.0539	 746.216	    5
  24.0542	 746.235	    5
  24.0546	 746.255	    5
  24.0550	 746.274	    5
  24.0553	 746.294	    5
  24.0557	 746.313	    5
  24.0561	 746.333	    5
  24.0565	 746.352	    5
  24.0568	 746.372	    5
  24.0572	 746.392	    5
  24.0576	 746.411	    5
  24.0579	 746.431	    5
  24.0583	 746.450	    5
  24.0587	 746.470	    5
  24.0590	 746.489	    5
  24.0594	 746.509	    5
  24.0598	 746.529	    5
  24.0601	 746.548	    5
  24.0605	 746.568	    5
  24.0609	 746.587	    5
  24.0613	 746.607	    5
  24.0616	 746.626	    5
  24.0620	 746.646	    5
  24.0624	 746.666	    5
  24.0627	 746.685	    5
  24.0631	 746.705	    5
  24.0635	 746.724	    5
  24.0638	 746.744	    5
  24.0642	 746.763	    5
  24.0646	 746.783	    5
  24.0650	 746.803	    5
  24.0653	 746.822	    5
  24.0657	 746.842	    5
  24.0661	 746.861	    5
  24.0664	 746.881	    5
  24.0668	 746.900	    5
  24.0672	 746.920	    5
  24.0675	 746.939	    5
  24.0679	 746.959	    5
  24.0683	 746.979	    5
  24.0687	 746.998	    5
  24.0690	 747.018	    5
  24.0694	 747.037	    5
  24.0698	 747.057	    5
  24.0701	 747.076	    5
  24.0705	 747.096	    5
  24.0709	 747.116	    4
  24.0712	 747.135	    5
  24.0716	 747.155	    5
  24.0720	 747.174	    5
  24.0724	 747.194	    4
  24.0727	 747.213	    5
  24.0731	 747.233	    5
  24.0735	 747.253	    5
  24.0738	 747.272	    5
  24.0742	 747.292	    5
  24.0746	 747.311	    5
  24.0749	 747.331	    5
  24.0753	 747.350	    5
  24.0757	 747.370	    5
  24.0761	 747.389	    5
  24.0764	 747.409	    5
  24.0768	 747.429	    5
  24.0772	 747.448	    5
  24.0775	 747.468	    4
  24.0779	 747.487	    5
  24.0783	 747.507	    5
  24.0786	 747.526	    5
  24.0790	 747.546	    4
  24.0794	 747.566	    5
  24.0798	 747.585	    5
  24.0801	 747.605	    5
  24.0805	 747.624	    5
  24.0809	 747.644	    5
  24.0812	 747.663	    5
  24.0816	 747.683	    5
  24.0820	 747.703	    4
  24.0823	 747.722	    5
  24.0827	 747.742	    4
  24.0831	 747.761	    5
  24.0834	 747.781	    5
  24.0838	 747.800	    5
  24.0842	 747.820	    4
  24.0846	 747.840	    5
  24.0849	 747.859	    5
  24.0853	 747.879	    5
  24.0857	 747.898	    4
  24.0860	 747.918	    5
  24.0864	 747.937	    5
  24.0868	 747.957	    5
  24.0871	 747.976	    5
  24.0875	 747.996	    5
  24.0879	 748.016	    4
  24.0883	 748.035	    5
  24.0886	 748.055	    4
  24.0890	 748.074	    5
  24.0894	 748.094	    5
  24.0897	 748.113	    5
  24.0901	 748.133	    4
  24.0905	 748.153	    5
  24.0908	 748.172	    5
  24.0912	 748.192	    5
  24.0916	 748.211	    5
  24.0920	 748.231	    5
  24.0923	 748.250	    4
  24.0927	 748.270	    5
  24.0931	 748.290	    4
  24.0934	 748.309	    5
  24.0938	 748.329	    5
  24.0942	 748.348	    5
  24.0945	 748.368	    5
  24.0949	 748.387	    5
  24.0953	 748.407	    4
  24.0957	 748.426	    5
  24.0960	 748.446	    5
  24.0964	 748.466	    5
  24.0968	 748.485	    4
  24.0971	 748.505	    5
  24.0975	 748.524	    5
  24.0979	 748.544	    5
  24.0982	 748.563	    5
  24.0986	 748.583	    5
  24.0990	 748.603	    4
  24.0994	 748.622	    5
  24.0997	 748.642	    4
  24.1001	 748.661	    5
  24.1005	 748.681	    4
  24.1008	 748.700	    5
  24.1012	 748.720	    5
  24.1016	 748.740	    5
  24.1019	 748.759	    4
  24.1023	 748.779	    5
  24.1027	 748.798	    5
  24.1031	 748.818	    5
  24.1034	 748.837	    5
  24.1038	 748.857	    5
  24.1042	 748.877	    5
  24.1045	 748.896	    5
  24.1049	 748.916	    5
  24.1053	 748.935	    5
  24.1056	 748.955	    5
  24.1060	 748.974	    5
  24.1064	 748.994	    5
  24.1067	 749.013	    5
  24.1071	 749.033	    5
  24.1075	 749.053	    5
  24.1079	 749.072	    5
  24.1082	 749.092	    5
  24.1086	 749.111	    4
  24.1090	 749.131	    5
  24.1093	 749.150	    4
  24.1097	 749.170	    5
  24.1101	 749.190	    5
  24.1104	 749.209	    5
  24.1108	 749.229	    5
  24.1112	 749.248	    5
  24.1116	 749.268	    5
  24.1119	 749.287	    5
  24.1123	 749.307	    5
  24.1127	 749.327	    5
  24.1130	 749.346	    5
  24.1134	 749.366	    5
  24.1138	 749.385	    5
  24.1141	 749.405	    5
  24.1145	 749.424	    5
  24.1149	 749.444	    5
  24.1153	 749.463	    5
  24.1156	 749.483	    5
  24.1160	 749.503	    5
  24.1164	 749.522	    5
  24.1167	 749.542	    5
  24.1171	 749.561	    5
  24.1175	 749.581	    5
  24.1178	 749.600	    5
  24.1182	 749.620	    5
  24.1186	 749.640	    5
  24.1190	 749.659	    5
  24.1193	 749.679	    5
  24.1197	 749.698	    5
  24.1201	 749.718	    5
  24.1204	 749.737	    5
  24.1208	 749.757	    5
  24.1212	 749.777	    5
  24.1215	 749.796	    5
  24.1219	 749.816	    5
  24.1223	 749.835	    5
  24.1227	 749.855	    5
  24.1230	 749.874	    5
  24.1234	 749.894	    4
  24.1238	 749.913	    5
  24.1241	 749.933	    4
  24.1245	 749.953	    5
  24.1249	 749.972	    5
  24.1252	 749.992	    5
  24.1256	 750.011	    4
  24.1260	 750.031	    5
  24.1264	 750.050	    5
  24.1267	 750.070	    5
  24.1271	 750.090	    5
  24.1275	 750.109	    5
  24.1278	 750.129	    4
  24.1282	 750.148	    5
  24.1286	 750.168	    5
  24.1289	 750.187	    5
  24.1293	 750.207	    5
  24.1297	 750.227	    5
  24.1300	 750.246	    5
  24.1304	 750.266	    5
  24.1308	 750.285	    5
  24.1312	 750.305	    5
  24.1315	 750.324	    5
  24.1319	 750.344	    5
  24.1323	 750.364	    5
  24.1326	 750.383	    5
  24.1330	 750.403	    5
  24.1334	 750.422	    5
  24.1337	 750.442	    5
  24.1341	 750.461	    5
  24.1345	 750.481	    4
  24.1349	 750.500	    5
  24.1352	 750.520	    4
  24.1356	 750.540	    5
  24.1360	 750.559	    5
  24.1363	 750.579	    5
  24.1367	 750.598	    4
  24.1371	 750.618	    5
  24.1374	 750.637	    5
  24.1378	 750.657	    5
  24.1382	 750.677	    5
  24.1386	 750.696	    5
  24.1389	 750.716	    5
  24.1393	 750.735	    5
  24.1397	 750.755	    5
  24.1400	 750.774	    5
  24.1404	 750.794	    5
  24.1408	 750.814	    5
  24.1411	 750.833	    5
  24.1415	 750.853	    5
  24.1419	 750.872	    5
  24.1423	 750.892	    5
  24.1426	 750.911	    5
  24.1430	 750.931	    5
  24.1434	 750.950	    5
  24.1437	 750.970	    5
  24.1441	 750.990	    5
  24.1445	 751.009	    5
  24.1448	 751.029	    4
  24.1452	 751.048	    5
  24.1456	 751.068	    5
  24.1460	 751.087	    5
  24.1463	 751.107	    5
  24.1467	 751.127	    5
  24.1471	 751.146	    4
  24.1474	 751.166	    5
  24.1478	 751.185	    4
  24.1482	 751.205	    5
  24.1485	 751.224	    4
  24.1489	 751.244	    5
  24.1493	 751.264	    5
  24.1497	 751.283	    5
  24.1500	 751.303	    4
  24.1504	 751.322	    5
  24.1508	 751.342	    4
  24.1511	 751.361	    5
  24.1515	 751.381	    4
  24.1519	 751.401	    5
  24.1522	 751.420	    4
  24.1526	 751.440	    5
  24.1530	 751.459	    4
  24.1533	 751.479	    5
  24.1537	 751.498	    4
  24.1541	 751.518	    5
  24.1545	 751.537	    4
  24.1548	 751.557	    5
  24.1552	 751.577	    4
  24.1556	 751.596	    5
  24.1559	 751.616	    4
  24.1563	 751.635	    5
  24.1567	 751.655	    4
  24.1570	 751.674	    5
  24.1574	 751.694	    4
  24.1578	 751.714	    5
  24.1582	 751.733	    5
  24.1585	 751.753	    5
  24.1589	 751.772	    4
  24.1593	 751.792	    5
  24.1596	 751.811	    4
  24.1600	 751.831	    5
  24.1604	 751.851	    4
  24.1607	 751.870	    5
  24.1611	 751.890	    4
  24.1615	 751.909	    5
  24.1619	 751.929	    4
  24.1622	 751.948	    5
  24.1626	 751.968	    4
  24.1630	 751.987	    5
  24.1633	 752.007	    4
  24.1637	 752.027	    5
  24.1641	 752.046	    4
  24.1644	 752.066	    5
  24.1648	 752.085	    5
  24.1652	 752.105	    5
  24.1656	 752.124	    4
  24.1659	 752.144	    5
  24.1663	 752.164	    4
  24.1667	 752.183	    5
  24.1670	 752.203	    4
  24.1674	 752.222	    5
  24.1678	 752.242	    4
  24.1681	 752.261	    5
  24.1685	 752.281	    4
  24.1689	 752.301	    5
  24.1693	 752.320	    4
  24.1696	 752.340	    5
  24.1700	 752.359	    4
  24.1704	 752.379	    5
  24.1707	 752.398	    4
  24.1711	 752.418	    5
  24.1715	 752.438	    4
  24.1718	 752.457	    5
  24.1722	 752.477	    4
  24.1726	 752.496	    5
  24.1730	 752.516	    4
  24.1733	 752.535	    5
  24.1737	 752.555	    4
  24.1741	 752.574	    5
  24.1744	 752.594	    4
  24.1748	 752.614	    5
  24.1752	 752.633	    4
  24.1755	 752.653	    5
  24.1759	 752.672	    4
  24.1763	 752.692	    5
  24.1766	 752.711	    5
  24.1770	 752.731	    5
  24.1774	 752.751	    5
  24.1778	 752.770	    5
  24.1781	 752.790	    4
  24.1785	 752.809	    5
  24.1789	 752.829	    4
  24.1792	 752.848	    5
  24.1796	 752.868	    5
  24.1800	 752.888	    5
  24.1803	 752.907	    5
  24.1807	 752.927	    5
  24.1811	 752.946	    5
  24.1815	 752.966	    5
  24.1818	 752.985	    5
  24.1822	 753.005	    5
  24.1826	 753.024	    5
  24.1829	 753.044	    5
  24.1833	 753.064	    4
  24.1837	 753.083	    5
  24.1840	 753.103	    5
  24.1844	 753.122	    5
  24.1848	 753.142	    4
  24.1852	 753.161	    5
  24.1855	 753.181	    5
  24.1859	 753.201	    5
  24.1863	 753.220	    5
  24.1866	 753.240	    5
  24.1870	 753.259	    5
  24.1874	 753.279	    5
  24.1877	 753.298	    5
  24.1881	 753.318	    5
  24.1885	 753.338	    5
  24.1889	 753.357	    5
  24.1892	 753.377	    4
  24.1896	 753.396	    5
  24.1900	 753.416	    5
  24.1903	 753.435	    5
  24.1907	 753.455	    5
  24.1911	 753.475	    5
  24.1914	 753.494	    5
  24.1918	 753.514	    5
  24.1922	 753.533	    4
  24.1926	 753.553	    5
  24.1929	 753.572	    5
  24.1933	 753.592	    5
  24.1937	 753.611	    5
  24.1940	 753.631	    5
  24.1944	 753.651	    4
  24.1948	 753.670	    5
  24.1951	 753.690	    5
  24.1955	 753.709	    5
  24.1959	 753.729	    5
  24.1963	 753.748	    5
  24.1966	 753.768	    4
  24.1970	 753.788	    5
  24.1974	 753.807	    4
  24.1977	 753.827	    5
  24.1981	 753.846	    5
  24.1985	 753.866	    5
  24.1988	 753.885	    5
  24.1992	 753.905	    5
  24.1996	 753.925	    5
  24.1999	 753.944	    5
  24.2003	 753.964	    5
  24.2007	 753.983	    5
  24.2011	 754.003	    5
  24.2014	 754.022	    5
  24.2018	 754.042	    5
  24.2022	 754.061	    5
  24.2025	 754.081	    5
  24.2029	 754.101	    5
  24.2033	 754.120	    4
  24.2036	 754.140	    5
  24.2040	 754.159	    4
  24.2044	 754.179	    5
  24.2048	 754.198	    5
  24.2051	 754.218	    5
  24.2055	 754.238	    5
  24.2059	 754.257	    5
  24.2062	 754.277	    5
  24.2066	 754.296	    5
  24.2070	 754.316	    5
  24.2073	 754.335	    5
  24.2077	 754.355	    5
  24.2081	 754.375	    5
  24.2085	 754.394	    5
  24.2088	 754.414	    5
  24.2092	 754.433	    5
  24.2096	 754.453	    5
  24.2099	 754.472	    5
  24.2103	 754.492	    5
  24.2107	 754.511	    4
  24.2110	 754.531	    5
  24.2114	 754.551	    5
  24.2118	 754.570	    5
  24.2122	 754.590	    5
  24.2125	 754.609	    5
  24.2129	 754.629	    5
  24.2133	 754.648	    5
  24.2136	 754.668	    5
  24.2140	 754.688	    5
  24.2144	 754.707	    4
  24.2147	 754.727	    5
  24.2151	 754.746	    5
  24.2155	 754.766	    5
  24.2159	 754.785	    5
  24.2162	 754.805	    5
  24.2166	 754.825	    5
  24.2170	 754.844	    5
  24.2173	 754.864	    5
  24.2177	 754.883	    5
  24.2181	 754.903	    5
  24.2184	 754.922	    5
  24.2188	 754.942	    4
  24.2192	 754.962	    5
  24.2196	 754.981	    5
  24.2199	 755.001	    5
  24.2203	 755.020	    5
  24.2207	 755.040	    5
  24.2210	 755.059	    4
  24.2214	 755.079	    5
  24.2218	 755.098	    5
  24.2221	 755.118	    5
  24.2225	 755.138	    5
  24.2229	 755.157	    5
  24.2232	 755.177	    4
  24.2236	 755.196	    5
  24.2240	 755.216	    4
  24.2244	 755.235	    5
  24.2247	 755.255	    5
  24.2251	 755.275	    5
  24.2255	 755.294	    5
  24.2258	 755.314	    5
  24.2262	 755.333	    5
  24.2266	 755.353	    5
  24.2269	 755.372	    5
  24.2273	 755.392	    5
  24.2277	 755.412	    5
  24.2281	 755.431	    5
  24.2284	 755.451	    5
  24.2288	 755.470	    5
  24.2292	 755.490	    5
  24.2295	 755.509	    5
  24.2299	 755.529	    5
  24.2303	 755.548	    5
  24.2306	 755.568	    5
  24.2310	 755.588	    5
  24.2314	 755.607	    5
  24.2318	 755.627	    5
  24.2321	 755.646	    5
  24.2325	 755.666	    5
  24.2329	 755.685	    5
  24.2332	 755.705	    5
  24.2336	 755.725	    5
  24.2340	 755.744	    5
  24.2343	 755.764	    5
  24.2347	 755.783	    5
  24.2351	 755.803	    5
  24.2355	 755.822	    5
  24.2358	 755.842	    5
  24.2362	 755.862	    5
  24.2366	 755.881	    5
  24.2369	 755.901	    5
  24.2373	 755.920	    5
  24.2377	 755.940	    5
  24.2380	 755.959	    5
  24.2384	 755.979	    5
  24.2388	 755.999	    5
  24.2392	 756.018	    5
  24.2395	 756.038	    5
  24.2399	 756.057	    5
  24.2403	 756.077	    5
  24.2406	 756.096	    5
  24.2410	 756.116	    5
  24.2414	 756.135	    5
  24.2417	 756.155	    5
  24.2421	 756.175	    5
  24.2425	 756.194	    5
  24.2429	 756.214	    5
  24.2432	 756.233	    5
  24.2436	 756.253	    5
  24.2440	 756.272	    5
  24.2443	 756.292	    5
  24.2447	 756.312	    5
  24.2451	 756.331	    5
  24.2454	 756.351	    5
  24.2458	 756.370	    5
  24.2462	 756.390	    5
  24.2465	 756.409	    5
  24.2469	 756.429	    5
  24.2473	 756.449	    5
  24.2477	 756.468	    5
  24.2480	 756.488	    5
  24.2484	 756.507	    5
  24.2488	 756.527	    5
  24.2491	 756.546	    5
  24.2495	 756.566	    5
  24.2499	 756.585	    5
  24.2502	 756.605	    5
  24.2506	 756.625	    5
  24.2510	 756.644	    5
  24.2514	 756.664	    5
  24.2517	 756.683	    5
  24.2521	 756.703	    5
  24.2525	 756.722	    5
  24.2528	 756.742	    5
  24.2532	 756.762	    5
  24.2536	 756.781	    5
  24.2539	 756.801	    5
  24.2543	 756.820	    5
  24.2547	 756.840	    5
  24.2551	 756.859	    4
  24.2554	 756.879	    5
  24.2558	 756.899	    5
  24.2562	 756.918	    5
  24.2565	 756.938	    4
  24.2569	 756.957	    5
  24.2573	 756.977	    5
  24.2576	 756.996	    5
  24.2580	 757.016	    5
  24.2584	 757.036	    5
  24.2588	 757.055	    5
  24.2591	 757.075	    5
  24.2595	 757.094	    4
  24.2599	 757.114	    5
  24.2602	 757.133	    4
  24.2606	 757.153	    5
  24.2610	 757.172	    5
  24.2613	 757.192	    5
  24.2617	 757.212	    4
  24.2621	 757.231	    5
  24.2625	 757.251	    4
  24.2628	 757.270	    5
  24.2632	 757.290	    5
  24.2636	 757.309	    5
  24.2639	 757.329	    5
  24.2643	 757.349	    5
  24.2647	 757.368	    5
  24.2650	 757.388	    5
  24.2654	 757.407	    5
  24.2658	 757.427	    5
  24.2661	 757.446	    5
  24.2665	 757.466	    5
  24.2669	 757.486	    5
  24.2673	 757.505	    5
  24.2676	 757.525	    5
  24.2680	 757.544	    5
  24.2684	 757.564	    5
  24.2687	 757.583	    5
  24.2691	 757.603	    5
  24.2695	 757.622	    5
  24.2698	 757.642	    5
  24.2702	 757.662	    5
  24.2706	 757.681	    5
  24.2710	 757.701	    5
  24.2713	 757.720	    5
  24.2717	 757.740	    5
  24.2721	 757.759	    5
  24.2724	 757.779	    5
  24.2728	 757.799	    5
  24.2732	 757.818	    5
  24.2735	 757.838	    5
  24.2739	 757.857	    5
  24.2743	 757.877	    4
  24.2747	 757.896	    5
  24.2750	 757.916	    5
  24.2754	 757.936	    5
  24.2758	 757.955	    4
  24.2761	 757.975	    5
  24.2765	 757.994	    5
  24.2769	 758.014	    5
  24.2772	 758.033	    5
  24.2776	 758.053	    5
  24.2780	 758.073	    5
  24.2784	 758.092	    5
  24.2787	 758.112	    5
  24.2791	 758.131	    5
  24.2795	 758.151	    5
  24.2798	 758.170	    5
  24.2802	 758.190	    5
  24.2806	 758.209	    5
  24.2809	 758.229	    5
  24.2813	 758.249	    5
  24.2817	 758.268	    5
  24.2821	 758.288	    5
  24.2824	 758.307	    5
  24.2828	 758.327	    5
  24.2832	 758.346	    5
  24.2835	 758.366	    5
  24.2839	 758.386	    5
  24.2843	 758.405	    5
  24.2846	 758.425	    4
  24.2850	 758.444	    5
  24.2854	 758.464	    5
  24.2858	 758.483	    5
  24.2861	 758.503	    4
  24.2865	 758.523	    5
  24.2869	 758.542	    5
  24.2872	 758.562	    5
  24.2876	 758.581	    5
  24.2880	 758.601	    5
  24.2883	 758.620	    5
  24.2887	 758.640	    5
  24.2891	 758.659	    5
  24.2894	 758.679	    5
  24.2898	 758.699	    4
  24.2902	 758.718	    5
  24.2906	 758.738	    5
  24.2909	 758.757	    5
  24.2913	 758.777	    4
  24.2917	 758.796	    5
  24.2920	 758.816	    5
  24.2924	 758.836	    5
  24.2928	 758.855	    4
  24.2931	 758.875	    5
  24.2935	 758.894	    5
  24.2939	 758.914	    5
  24.2943	 758.933	    5
  24.2946	 758.953	    5
  24.2950	 758.973	    5
  24.2954	 758.992	    5
  24.2957	 759.012	    5
  24.2961	 759.031	    5
  24.2965	 759.051	    5
  24.2968	 759.070	    5
  24.2972	 759.090	    5
  24.2976	 759.110	    5
  24.2980	 759.129	    5
  24.2983	 759.149	    5
  24.2987	 759.168	    4
  24.2991	 759.188	    5
  24.2994	 759.207	    5
  24.2998	 759.227	    5
  24.3002	 759.246	    4
  24.3005	 759.266	    5
  24.3009	 759.286	    4
  24.3013	 759.305	    5
  24.3017	 759.325	    5
  24.3020	 759.344	    5
  24.3024	 759.364	    4
  24.3028	 759.383	    5
  24.3031	 759.403	    4
  24.3035	 759.423	    5
  24.3039	 759.442	    5
  24.3042	 759.462	    5
  24.3046	 759.481	    5
  24.3050	 759.501	    5
  24.3054	 759.520	    5
  24.3057	 759.540	    5
  24.3061	 759.560	    5
  24.3065	 759.579	    5
  24.3068	 759.599	    4
  24.3072	 759.618	    5
  24.3076	 759.638	    4
  24.3079	 759.657	    5
  24.3083	 759.677	    5
  24.3087	 759.696	    5
  24.3091	 759.716	    4
  24.3094	 759.736	    5
  24.3098	 759.755	    5
  24.3102	 759.775	    5
  24.3105	 759.794	    5
  24.3109	 759.814	    5
  24.3113	 759.833	    5
  24.3116	 759.853	    5
  24.3120	 759.873	    5
  24.3124	 759.892	    5
  24.3127	 759.912	    5
  24.3131	 759.931	    5
  24.3135	 759.951	    5
  24.3139	 759.970	    5
  24.3142	 759.990	    5
  24.3146	 760.010	    5
  24.3150	 760.029	    5
  24.3153	 760.049	    5
  24.3157	 760.068	    5
  24.3161	 760.088	    5
  24.3164	 760.107	    5
  24.3168	 760.127	    5
  24.3172	 760.146	    5
  24.3176	 760.166	    5
  24.3179	 760.186	    5
  24.3183	 760.205	    5
  24.3187	 760.225	    5
  24.3190	 760.244	    5
  24.3194	 760.264	    5
  24.3198	 760.283	    5
  24.3201	 760.303	    5
  24.3205	 760.323	    5
  24.3209	 760.342	    5
  24.3213	 760.362	    5
  24.3216	 760.381	    5
  24.3220	 760.401	    5
  24.3224	 760.420	    5
  24.3227	 760.440	    5
  24.3231	 760.460	    5
  24.3235	 760.479	    5
  24.3238	 760.499	    5
  24.3242	 760.518	    5
  24.3246	 760.538	    5
  24.3250	 760.557	    5
  24.3253	 760.577	    5
  24.3257	 760.597	    5
  24.3261	 760.616	    5
  24.3264	 760.636	    5
  24.3268	 760.655	    5
  24.3272	 760.675	    5
  24.3275	 760.694	    5
  24.3279	 760.714	    5
  24.3283	 760.733	    5
  24.3287	 760.753	    5
  24.3290	 760.773	    5
  24.3294	 760.792	    5
  24.3298	 760.812	    5
  24.3301	 760.831	    5
  24.3305	 760.851	    5
  24.3309	 760.870	    5
  24.3312	 760.890	    5
  24.3316	 760.910	    5
  24.3320	 760.929	    5
  24.3324	 760.949	    5
  24.3327	 760.968	    5
  24.3331	 760.988	    5
  24.3335	 761.007	    5
  24.3338	 761.027	    5
  24.3342	 761.047	    4
  24.3346	 761.066	    5
  24.3349	 761.086	    4
  24.3353	 761.105	    5
  24.3357	 761.125	    4
  24.3360	 761.144	    5
  24.3364	 761.164	    5
  24.3368	 761.183	    5
  24.3372	 761.203	    4
  24.3375	 761.223	    5
  24.3379	 761.242	    4
  24.3383	 761.262	    5
  24.3386	 761.281	    5
  24.3390	 761.301	    5
  24.3394	 761.320	    5
  24.3397	 761.340	    5
  24.3401	 761.360	    5
  24.3405	 761.379	    5
  24.3409	 761.399	    5
  24.3412	 761.418	    5
  24.3416	 761.438	    5
  24.3420	 761.457	    5
  24.3423	 761.477	    4
  24.3427	 761.497	    5
  24.3431	 761.516	    4
  24.3434	 761.536	    5
  24.3438	 761.555	    5
  24.3442	 761.575	    5
  24.3446	 761.594	    5
  24.3449	 761.614	    5
  24.3453	 761.634	    5
  24.3457	 761.653	    5
  24.3460	 761.673	    5
  24.3464	 761.692	    5
  24.3468	 761.712	    5
  24.3471	 761.731	    5
  24.3475	 761.751	    5
  24.3479	 761.770	    5
  24.3483	 761.790	    5
  24.3486	 761.810	    5
  24.3490	 761.829	    5
  24.3494	 761.849	    5
  24.3497	 761.868	    5
  24.3501	 761.888	    5
  24.3505	 761.907	    5
  24.3508	 761.927	    5
  24.3512	 761.947	    5
  24.3516	 761.966	    5
  24.3520	 761.986	    4
  24.3523	 762.005	    5
  24.3527	 762.025	    5
  24.3531	 762.044	    5
  24.3534	 762.064	    5
  24.3538	 762.084	    5
  24.3542	 762.103	    5
  24.3545	 762.123	    5
  24.3549	 762.142	    5
  24.3553	 762.162	    5
  24.3557	 762.181	    5
  24.3560	 762.201	    5
  24.3564	 762.220	    5
  24.3568	 762.240	    5
  24.3571	 762.260	    5
  24.3575	 762.279	    5
  24.3579	 762.299	    5
  24.3582	 762.318	    5
  24.3586	 762.338	    5
  24.3590	 762.357	    5
  24.3593	 762.377	    5
  24.3597	 762.397	    5
  24.3601	 762.416	    4
  24.3605	 762.436	    5
  24.3608	 762.455	    5
  24.3612	 762.475	    5
  24.3616	 762.494	    5
  24.3619	 762.514	    5
  24.3623	 762.534	    5
  24.3627	 762.553	    5
  24.3630	 762.573	    4
  24.3634	 762.592	    5
  24.3638	 762.612	    4
  24.3642	 762.631	    5
  24.3645	 762.651	    4
  24.3649	 762.671	    5
  24.3653	 762.690	    5
  24.3656	 762.710	    5
  24.3660	 762.729	    5
  24.3664	 762.749	    5
  24.3667	 762.768	    5
  24.3671	 762.788	    5
  24.3675	 762.807	    4
  24.3679	 762.827	    5
  24.3682	 762.847	    4
  24.3686	 762.866	    5
  24.3690	 762.886	    4
  24.3693	 762.905	    5
  24.3697	 762.925	    4
  24.3701	 762.944	    5
  24.3704	 762.964	    5
  24.3708	 762.984	    5
  24.3712	 763.003	    5
  24.3716	 763.023	    5
  24.3719	 763.042	    5
  24.3723	 763.062	    5
  24.3727	 763.081	    4
  24.3730	 763.101	    5
  24.3734	 763.121	    5
  24.3738	 763.140	    5
  24.3741	 763.160	    5
  24.3745	 763.179	    5
  24.3749	 763.199	    5
  24.3753	 763.218	    5
  24.3756	 763.238	    5
  24.3760	 763.257	    5
  24.3764	 763.277	    5
  24.3767	 763.297	    5
  24.3771	 763.316	    5
  24.3775	 763.336	    5
  24.3778	 763.355	    5
  24.3782	 763.375	    5
  24.3786	 763.394	    5
  24.3790	 763.414	    5
  24.3793	 763.434	    5
  24.3797	 763.453	    5
  24.3801	 763.473	    4
  24.3804	 763.492	    5
  24.3808	 763.512	    5
  24.3812	 763.531	    5
  24.3815	 763.551	    5
  24.3819	 763.571	    5
  24.3823	 763.590	    5
  24.3826	 763.610	    5
  24.3830	 763.629	    5
  24.3834	 763.649	    5
  24.3838	 763.668	    5
  24.3841	 763.688	    5
  24.3845	 763.708	    5
  24.3849	 763.727	    5
  24.3852	 763.747	    5
  24.3856	 763.766	    5
  24.3860	 763.786	    5
  24.3863	 763.805	    5
  24.3867	 763.825	    5
  24.3871	 763.844	    5
  24.3875	 763.864	    4
  24.3878	 763.884	    5
  24.3882	 763.903	    5
  24.3886	 763.923	    5
  24.3889	 763.942	    5
  24.3893	 763.962	    5
  24.3897	 763.981	    5
  24.3900	 764.001	    5
  24.3904	 764.021	    5
  24.3908	 764.040	    5
  24.3912	 764.060	    5
  24.3915	 764.079	    5
  24.3919	 764.099	    5
  24.3923	 764.118	    5
  24.3926	 764.138	    4
  24.3930	 764.158	    5
  24.3934	 764.177	    5
  24.3937	 764.197	    5
  24.3941	 764.216	    5
  24.3945	 764.236	    5
  24.3949	 764.255	    5
  24.3952	 764.275	    5
  24.3956	 764.294	    5
  24.3960	 764.314	    5
  24.3963	 764.334	    5
  24.3967	 764.353	    5
  24.3971	 764.373	    5
  24.3974	 764.392	    5
  24.3978	 764.412	    5
  24.3982	 764.431	    5
  24.3986	 764.451	    5
  24.3989	 764.471	    5
  24.3993	 764.490	    5
  24.3997	 764.510	    5
  24.4000	 764.529	    5
  24.4004	 764.549	    5
  24.4008	 764.568	    5
  24.4011	 764.588	    5
  24.4015	 764.608	    5
  24.4019	 764.627	    5
  24.4023	 764.647	    5
  24.4026	 764.666	    5
  24.4030	 764.686	    5
  24.4034	 764.705	    5
  24.4037	 764.725	    5
  24.4041	 764.744	    5
  24.4045	 764.764	    5
  24.4048	 764.784	    5
  24.4052	 764.803	    5
  24.4056	 764.823	    5
  24.4059	 764.842	    5
  24.4063	 764.862	    5
  24.4067	 764.881	    5
  24.4071	 764.901	    5
  24.4074	 764.921	    5
  24.4078	 764.940	    5
  24.4082	 764.960	    5
  24.4085	 764.979	    5
  24.4089	 764.999	    5
  24.4093	 765.018	    5
  24.4096	 765.038	    5
  24.4100	 765.058	    5
  24.4104	 765.077	    5
  24.4108	 765.097	    5
  24.4111	 765.116	    5
  24.4115	 765.136	    5
  24.4119	 765.155	    5
  24.4122	 765.175	    5
  24.4126	 765.195	    5
  24.4130	 765.214	    5
  24.4133	 765.234	    5
  24.4137	 765.253	    5
  24.4141	 765.273	    5
  24.4145	 765.292	    5
  24.4148	 765.312	    5
  24.4152	 765.331	    5
  24.4156	 765.351	    5
  24.4159	 765.371	    5
  24.4163	 765.390	    4
  24.4167	 765.410	    5
  24.4170	 765.429	    5
  24.4174	 765.449	    5
  24.4178	 765.468	    5
  24.4182	 765.488	    5
  24.4185	 765.508	    4
  24.4189	 765.527	    5
  24.4193	 765.547	    5
  24.4196	 765.566	    5
  24.4200	 765.586	    4
  24.4204	 765.605	    5
  24.4207	 765.625	    5
  24.4211	 765.645	    5
  24.4215	 765.664	    5
  24.4219	 765.684	    5
  24.4222	 765.703	    5
  24.4226	 765.723	    5
  24.4230	 765.742	    5
  24.4233	 765.762	    5
  24.4237	 765.781	    5
  24.4241	 765.801	    5
  24.4244	 765.821	    4
  24.4248	 765.840	    5
  24.4252	 765.860	    5
  24.4256	 765.879	    5
  24.4259	 765.899	    4
  24.4263	 765.918	    5
  24.4267	 765.938	    5
  24.4270	 765.958	    5
  24.4274	 765.977	    5
  24.4278	 765.997	    5
  24.4281	 766.016	    5
  24.4285	 766.036	    5
  24.4289	 766.055	    4
  24.4292	 766.075	    5
  24.4296	 766.095	    4
  24.4300	 766.114	    5
  24.4304	 766.134	    4
  24.4307	 766.153	    5
  24.4311	 766.173	    5
  24.4315	 766.192	    5
  24.4318	 766.212	    4
  24.4322	 766.232	    5
  24.4326	 766.251	    5
  24.4329	 766.271	    5
  24.4333	 766.290	    4
  24.4337	 766.310	    5
  24.4341	 766.329	    5
  24.4344	 766.349	    5
  24.4348	 766.368	    4
  24.4352	 766.388	    5
  24.4355	 766.408	    4
  24.4359	 766.427	    5
  24.4363	 766.447	    5
  24.4366	 766.466	    5
  24.4370	 766.486	    5
  24.4374	 766.505	    5
  24.4378	 766.525	    5
  24.4381	 766.545	    5
  24.4385	 766.564	    5
  24.4389	 766.584	    5
  24.4392	 766.603	    5
  24.4396	 766.623	    5
  24.4400	 766.642	    5
  24.4403	 766.662	    5
  24.4407	 766.682	    5
  24.4411	 766.701	    5
  24.4415	 766.721	    4
  24.4418	 766.740	    5
  24.4422	 766.760	    5
  24.4426	 766.779	    5
  24.4429	 766.799	    5
  24.4433	 766.818	    5
  24.4437	 766.838	    4
  24.4440	 766.858	    5
  24.4444	 766.877	    4
  24.4448	 766.897	    5
  24.4452	 766.916	    4
  24.4455	 766.936	    5
  24.4459	 766.955	    4
  24.4463	 766.975	    5
  24.4466	 766.995	    4
  24.4470	 767.014	    5
  24.4474	 767.034	    4
  24.4477	 767.053	    5
  24.4481	 767.073	    4
  24.4485	 767.092	    5
  24.4489	 767.112	    4
  24.4492	 767.132	    5
  24.4496	 767.151	    4
  24.4500	 767.171	    5
  24.4503	 767.190	    5
  24.4507	 767.210	    5
  24.4511	 767.229	    5
  24.4514	 767.249	    5
  24.4518	 767.269	    4
  24.4522	 767.288	    5
  24.4525	 767.308	    5
  24.4529	 767.327	    5
  24.4533	 767.347	    4
  24.4537	 767.366	    5
  24.4540	 767.386	    5
  24.4544	 767.405	    5
  24.4548	 767.425	    4
  24.4551	 767.445	    5
  24.4555	 767.464	    5
  24.4559	 767.484	    5
  24.4562	 767.503	    4
  24.4566	 767.523	    5
  24.4570	 767.542	    4
  24.4574	 767.562	    5
  24.4577	 767.582	    4
  24.4581	 767.601	    5
  24.4585	 767.621	    4
  24.4588	 767.640	    5
  24.4592	 767.660	    4
  24.4596	 767.679	    5
  24.4599	 767.699	    4
  24.4603	 767.719	    5
  24.4607	 767.738	    4
  24.4611	 767.758	    5
  24.4614	 767.777	    4
  24.4618	 767.797	    5
  24.4622	 767.816	    5
  24.4625	 767.836	    5
  24.4629	 767.855	    4
  24.4633	 767.875	    5
  24.4636	 767.895	    4
  24.4640	 767.914	    5
  24.4644	 767.934	    4
  24.4648	 767.953	    5
  24.4651	 767.973	    4
  24.4655	 767.992	    5
  24.4659	 768.012	    5
  24.4662	 768.032	    5
  24.4666	 768.051	    4
  24.4670	 768.071	    5
  24.4673	 768.090	    5
  24.4677	 768.110	    5
  24.4681	 768.129	    4
  24.4685	 768.149	    5
  24.4688	 768.169	    4
  24.4692	 768.188	    5
  24.4696	 768.208	    5
  24.4699	 768.227	    5
  24.4703	 768.247	    4
  24.4707	 768.266	    5
  24.4710	 768.286	    4
  24.4714	 768.306	    5
  24.4718	 768.325	    4
  24.4722	 768.345	    5
  24.4725	 768.364	    4
  24.4729	 768.384	    5
  24.4733	 768.403	    5
  24.4736	 768.423	    5
  24.4740	 768.442	    4
  24.4744	 768.462	    5
  24.4747	 768.482	    4
  24.4751	 768.501	    5
  24.4755	 768.521	    4
  24.4758	 768.540	    5
  24.4762	 768.560	    4
  24.4766	 768.579	    5
  24.4770	 768.599	    4
  24.4773	 768.619	    5
  24.4777	 768.638	    4
  24.4781	 768.658	    5
  24.4784	 768.677	    4
  24.4788	 768.697	    5
  24.4792	 768.716	    4
  24.4795	 768.736	    5
  24.4799	 768.756	    4
  24.4803	 768.775	    5
  24.4807	 768.795	    4
  24.4810	 768.814	    5
  24.4814	 768.834	    4
  24.4818	 768.853	    5
  24.4821	 768.873	    5
  24.4825	 768.892	    5
  24.4829	 768.912	    5
  24.4832	 768.932	    5
  24.4836	 768.951	    4
  24.4840	 768.971	    5
  24.4844	 768.990	    4
  24.4847	 769.010	    5
  24.4851	 769.029	    4
  24.4855	 769.049	    5
  24.4858	 769.069	    4
  24.4862	 769.088	    5
  24.4866	 769.108	    4
  24.4869	 769.127	    5
  24.4873	 769.147	    4
  24.4877	 769.166	    5
  24.4881	 769.186	    4
  24.4884	 769.206	    5
  24.4888	 769.225	    4
  24.4892	 769.245	    5
  24.4895	 769.264	    4
  24.4899	 769.284	    5
  24.4903	 769.303	    4
  24.4906	 769.323	    5
  24.4910	 769.342	    4
  24.4914	 769.362	    5
  24.4918	 769.382	    4
  24.4921	 769.401	    5
  24.4925	 769.421	    5
  24.4929	 769.440	    5
  24.4932	 769.460	    4
  24.4936	 769.479	    5
  24.4940	 769.499	    4
  24.4943	 769.519	    5
  24.4947	 769.538	    4
  24.4951	 769.558	    5
  24.4955	 769.577	    4
  24.4958	 769.597	    5
  24.4962	 769.616	    5
  24.4966	 769.636	    5
  24.4969	 769.656	    5
  24.4973	 769.675	    5
  24.4977	 769.695	    4
  24.4980	 769.714	    5
  24.4984	 769.734	    4
  24.4988	 769.753	    5
  24.4991	 769.773	    4
  24.4995	 769.793	    5
  24.4999	 769.812	    4
  24.5003	 769.832	    5
  24.5006	 769.851	    4
  24.5010	 769.871	    5
  24.5014	 769.890	    4
  24.5017	 769.910	    5
  24.5021	 769.929	    5
  24.5025	 769.949	    5
  24.5028	 769.969	    5
  24.5032	 769.988	    5
  24.5036	 770.008	    5
  24.5040	 770.027	    5
  24.5043	 770.047	    4
  24.5047	 770.066	    5
  24.5051	 770.086	    5
  24.5054	 770.106	    5
  24.5058	 770.125	    4
  24.5062	 770.145	    5
  24.5065	 770.164	    4
  24.5069	 770.184	    5
  24.5073	 770.203	    5
  24.5077	 770.223	    5
  24.5080	 770.243	    5
  24.5084	 770.262	    5
  24.5088	 770.282	    4
  24.5091	 770.301	    5
  24.5095	 770.321	    5
  24.5099	 770.340	    5
  24.5102	 770.360	    5
  24.5106	 770.379	    5
  24.5110	 770.399	    4
  24.5114	 770.419	    5
  24.5117	 770.438	    5
  24.5121	 770.458	    5
  24.5125	 770.477	    4
  24.5128	 770.497	    5
  24.5132	 770.516	    5
  24.5136	 770.536	    5
  24.5139	 770.556	    4
  24.5143	 770.575	    5
  24.5147	 770.595	    4
  24.5151	 770.614	    5
  24.5154	 770.634	    4
  24.5158	 770.653	    5
  24.5162	 770.673	    4
  24.5165	 770.693	    5
  24.5169	 770.712	    4
  24.5173	 770.732	    5
  24.5176	 770.751	    5
  24.5180	 770.771	    5
  24.5184	 770.790	    5
  24.5187	 770.810	    5
  24.5191	 770.830	    5
  24.5195	 770.849	    5
  24.5199	 770.869	    5
  24.5202	 770.888	    5
  24.5206	 770.908	    5
  24.5210	 770.927	    5
  24.5213	 770.947	    5
  24.5217	 770.966	    5
  24.5221	 770.986	    5
  24.5224	 771.006	    5
  24.5228	 771.025	    5
  24.5232	 771.045	    5
  24.5236	 771.064	    5
  24.5239	 771.084	    5
  24.5243	 771.103	    5
  24.5247	 771.123	    5
  24.5250	 771.143	    4
  24.5254	 771.162	    5
  24.5258	 771.182	    4
  24.5261	 771.201	    5
  24.5265	 771.221	    5
  24.5269	 771.240	    5
  24.5273	 771.260	    5
  24.5276	 771.280	    5
  24.5280	 771.299	    4
  24.5284	 771.319	    5
  24.5287	 771.338	    5
  24.5291	 771.358	    5
  24.5295	 771.377	    5
  24.5298	 771.397	    5
  24.5302	 771.416	    5
  24.5306	 771.436	    5
  24.5310	 771.456	    5
  24.5313	 771.475	    5
  24.5317	 771.495	    5
  24.5321	 771.514	    5
  24.5324	 771.534	    5
  24.5328	 771.553	    5
  24.5332	 771.573	    5
  24.5335	 771.593	    5
  24.5339	 771.612	    5
  24.5343	 771.632	    5
  24.5347	 771.651	    5
  24.5350	 771.671	    5
  24.5354	 771.690	    5
  24.5358	 771.710	    5
  24.5361	 771.730	    5
  24.5365	 771.749	    5
  24.5369	 771.769	    5
  24.5372	 771.788	    5
  24.5376	 771.808	    5
  24.5380	 771.827	    5
  24.5384	 771.847	    5
  24.5387	 771.867	    5
  24.5391	 771.886	    5
  24.5395	 771.906	    5
  24.5398	 771.925	    5
  24.5402	 771.945	    5
  24.5406	 771.964	    5
  24.5409	 771.984	    5
  24.5413	 772.003	    5
  24.5417	 772.023	    5
  24.5420	 772.043	    5
  24.5424	 772.062	    5
  24.5428	 772.082	    5
  24.5432	 772.101	    5
  24.5435	 772.121	    4
  24.5439	 772.140	    5
  24.5443	 772.160	    5
  24.5446	 772.180	    5
  24.5450	 772.199	    5
  24.5454	 772.219	    5
  24.5457	 772.238	    5
  24.5461	 772.258	    5
  24.5465	 772.277	    5
  24.5469	 772.297	    5
  24.5472	 772.317	    5
  24.5476	 772.336	    5
  24.5480	 772.356	    5
  24.5483	 772.375	    5
  24.5487	 772.395	    5
  24.5491	 772.414	    5
  24.5494	 772.434	    5
  24.5498	 772.453	    5
  24.5502	 772.473	    5
  24.5506	 772.493	    5
  24.5509	 772.512	    5
  24.5513	 772.532	    5
  24.5517	 772.551	    5
  24.5520	 772.571	    5
  24.5524	 772.590	    5
  24.5528	 772.610	    5
  24.5531	 772.630	    5
  24.5535	 772.649	    5
  24.5539	 772.669	    5
  24.5543	 772.688	    5
  24.5546	 772.708	    5
  24.5550	 772.727	    5
  24.5554	 772.747	    5
  24.5557	 772.767	    5
  24.5561	 772.786	    5
  24.5565	 772.806	    5
  24.5568	 772.825	    5
  24.5572	 772.845	    5
  24.5576	 772.864	    5
  24.5580	 772.884	    5
  24.5583	 772.904	    5
  24.5587	 772.923	    5
  24.5591	 772.943	    5
  24.5594	 772.962	    5
  24.5598	 772.982	    5
  24.5602	 773.001	    5
  24.5605	 773.021	    5
  24.5609	 773.040	    5
  24.5613	 773.060	    5
  24.5617	 773.080	    5
  24.5620	 773.099	    5
  24.5624	 773.119	    5
  24.5628	 773.138	    5
  24.5631	 773.158	    5
  24.5635	 773.177	    5
  24.5639	 773.197	    5
  24.5642	 773.217	    5
  24.5646	 773.236	    5
  24.5650	 773.256	    5
  24.5653	 773.275	    5
  24.5657	 773.295	    5
  24.5661	 773.314	    5
  24.5665	 773.334	    5
  24.5668	 773.354	    5
  24.5672	 773.373	    5
  24.5676	 773.393	    5
  24.5679	 773.412	    5
  24.5683	 773.432	    5
  24.5687	 773.451	    5
  24.5690	 773.471	    5
  24.5694	 773.490	    5
  24.5698	 773.510	    5
  24.5702	 773.530	    5
  24.5705	 773.549	    5
  24.5709	 773.569	    4
  24.5713	 773.588	    5
  24.5716	 773.608	    5
  24.5720	 773.627	    5
  24.5724	 773.647	    5
  24.5727	 773.667	    5
  24.5731	 773.686	    4
  24.5735	 773.706	    5
  24.5739	 773.725	    5
  24.5742	 773.745	    5
  24.5746	 773.764	    5
  24.5750	 773.784	    5
  24.5753	 773.804	    5
  24.5757	 773.823	    5
  24.5761	 773.843	    5
  24.5764	 773.862	    5
  24.5768	 773.882	    4
  24.5772	 773.901	    5
  24.5776	 773.921	    5
  24.5779	 773.941	    5
  24.5783	 773.960	    5
  24.5787	 773.980	    5
  24.5790	 773.999	    5
  24.5794	 774.019	    5
  24.5798	 774.038	    5
  24.5801	 774.058	    5
  24.5805	 774.077	    5
  24.5809	 774.097	    5
  24.5813	 774.117	    5
  24.5816	 774.136	    5
  24.5820	 774.156	    5
  24.5824	 774.175	    5
  24.5827	 774.195	    4
  24.5831	 774.214	    5
  24.5835	 774.234	    4
  24.5838	 774.254	    5
  24.5842	 774.273	    4
  24.5846	 774.293	    5
  24.5850	 774.312	    5
  24.5853	 774.332	    5
  24.5857	 774.351	    5
  24.5861	 774.371	    5
  24.5864	 774.391	    4
  24.5868	 774.410	    5
  24.5872	 774.430	    5
  24.5875	 774.449	    5
  24.5879	 774.469	    5
  24.5883	 774.488	    5
  24.5886	 774.508	    5
  24.5890	 774.527	    5
  24.5894	 774.547	    5
  24.5898	 774.567	    5
  24.5901	 774.586	    5
  24.5905	 774.606	    5
  24.5909	 774.625	    5
  24.5912	 774.645	    5
  24.5916	 774.664	    5
  24.5920	 774.684	    5
  24.5923	 774.704	    5
  24.5927	 774.723	    5
  24.5931	 774.743	    5
  24.5935	 774.762	    5
  24.5938	 774.782	    4
  24.5942	 774.801	    5
  24.5946	 774.821	    5
  24.5949	 774.841	    5
  24.5953	 774.860	    4
  24.5957	 774.880	    5
  24.5960	 774.899	    4
  24.5964	 774.919	    5
  24.5968	 774.938	    4
  24.5972	 774.958	    5
  24.5975	 774.977	    5
  24.5979	 774.997	    5
  24.5983	 775.017	    5
  24.5986	 775.036	    5
  24.5990	 775.056	    5
  24.5994	 775.075	    5
  24.5997	 775.095	    4
  24.6001	 775.114	    5
  24.6005	 775.134	    5
  24.6009	 775.154	    5
  24.6012	 775.173	    5
  24.6016	 775.193	    5
  24.6020	 775.212	    5
  24.6023	 775.232	    5
  24.6027	 775.251	    4
  24.6031	 775.271	    5
  24.6034	 775.291	    5
  24.6038	 775.310	    5
  24.6042	 775.330	    5
  24.6046	 775.349	    5
  24.6049	 775.369	    5
  24.6053	 775.388	    5
  24.6057	 775.408	    5
  24.6060	 775.428	    5
  24.6064	 775.447	    5
  24.6068	 775.467	    5
  24.6071	 775.486	    5
  24.6075	 775.506	    5
  24.6079	 775.525	    5
  24.6083	 775.545	    5
  24.6086	 775.564	    5
  24.6090	 775.584	    5
  24.6094	 775.604	    5
  24.6097	 775.623	    5
  24.6101	 775.643	    5
  24.6105	 775.662	    5
  24.6108	 775.682	    5
  24.6112	 775.701	    5
  24.6116	 775.721	    5
  24.6119	 775.741	    5
  24.6123	 775.760	    5
  24.6127	 775.780	    5
  24.6131	 775.799	    5
  24.6134	 775.819	    5
  24.6138	 775.838	    5
  24.6142	 775.858	    5
  24.6145	 775.878	    5
  24.6149	 775.897	    5
  24.6153	 775.917	    5
  24.6156	 775.936	    5
  24.6160	 775.956	    5
  24.6164	 775.975	    5
  24.6168	 775.995	    5
  24.6171	 776.014	    5
  24.6175	 776.034	    5
  24.6179	 776.054	    5
  24.6182	 776.073	    5
  24.6186	 776.093	    5
  24.6190	 776.112	    5
  24.6193	 776.132	    5
  24.6197	 776.151	    5
  24.6201	 776.171	    5
  24.6205	 776.191	    5
  24.6208	 776.210	    5
  24.6212	 776.230	    5
  24.6216	 776.249	    5
  24.6219	 776.269	    5
  24.6223	 776.288	    5
  24.6227	 776.308	    5
  24.6230	 776.328	    5
  24.6234	 776.347	    5
  24.6238	 776.367	    5
  24.6242	 776.386	    5
  24.6245	 776.406	    5
  24.6249	 776.425	    5
  24.6253	 776.445	    5
  24.6256	 776.465	    5
  24.6260	 776.484	    5
  24.6264	 776.504	    5
  24.6267	 776.523	    5
  24.6271	 776.543	    5
  24.6275	 776.562	    5
  24.6279	 776.582	    5
  24.6282	 776.601	    5
  24.6286	 776.621	    5
  24.6290	 776.641	    5
  24.6293	 776.660	    5
  24.6297	 776.680	    5
  24.6301	 776.699	    5
  24.6304	 776.719	    5
  24.6308	 776.738	    5
  24.6312	 776.758	    5
  24.6316	 776.778	    5
  24.6319	 776.797	    5
  24.6323	 776.817	    5
  24.6327	 776.836	    5
  24.6330	 776.856	    5
  24.6334	 776.875	    5
  24.6338	 776.895	    5
  24.6341	 776.915	    5
  24.6345	 776.934	    5
  24.6349	 776.954	    5
  24.6352	 776.973	    5
  24.6356	 776.993	    5
  24.6360	 777.012	    5
  24.6364	 777.032	    5
  24.6367	 777.051	    5
  24.6371	 777.071	    5
  24.6375	 777.091	    5
  24.6378	 777.110	    5
  24.6382	 777.130	    5
  24.6386	 777.149	    5
  24.6389	 777.169	    5
  24.6393	 777.188	    5
  24.6397	 777.208	    5
  24.6401	 777.228	    5
  24.6404	 777.247	    5
  24.6408	 777.267	    5
  24.6412	 777.286	    5
  24.6415	 777.306	    5
  24.6419	 777.325	    5
  24.6423	 777.345	    5
  24.6426	 777.365	    5
  24.6430	 777.384	    5
  24.6434	 777.404	    5
  24.6438	 777.423	    5
  24.6441	 777.443	    5
  24.6445	 777.462	    5
  24.6449	 777.482	    5
  24.6452	 777.502	    5
  24.6456	 777.521	    5
  24.6460	 777.541	    5
  24.6463	 777.560	    5
  24.6467	 777.580	    5
  24.6471	 777.599	    5
  24.6475	 777.619	    5
  24.6478	 777.638	    5
  24.6482	 777.658	    5
  24.6486	 777.678	    5
  24.6489	 777.697	    5
  24.6493	 777.717	    5
  24.6497	 777.736	    5
  24.6500	 777.756	    5
  24.6504	 777.775	    5
  24.6508	 777.795	    5
  24.6512	 777.815	    5
  24.6515	 777.834	    5
  24.6519	 777.854	    5
  24.6523	 777.873	    5
  24.6526	 777.893	    5
  24.6530	 777.912	    5
  24.6534	 777.932	    5
  24.6537	 777.952	    5
  24.6541	 777.971	    5
  24.6545	 777.991	    5
  24.6549	 778.010	    5
  24.6552	 778.030	    5
  24.6556	 778.049	    5
  24.6560	 778.069	    5
  24.6563	 778.088	    5
  24.6567	 778.108	    5
  24.6571	 778.128	    5
  24.6574	 778.147	    5
  24.6578	 778.167	    5
  24.6582	 778.186	    5
  24.6585	 778.206	    5
  24.6589	 778.225	    5
  24.6593	 778.245	    5
  24.6597	 778.265	    5
  24.6600	 778.284	    5
  24.6604	 778.304	    5
  24.6608	 778.323	    5
  24.6611	 778.343	    5
  24.6615	 778.362	    5
  24.6619	 778.382	    5
  24.6622	 778.402	    5
  24.6626	 778.421	    5
  24.6630	 778.441	    5
  24.6634	 778.460	    5
  24.6637	 778.480	    5
  24.6641	 778.499	    5
  24.6645	 778.519	    5
  24.6648	 778.539	    5
  24.6652	 778.558	    5
  24.6656	 778.578	    5
  24.6659	 778.597	    5
  24.6663	 778.617	    5
  24.6667	 778.636	    5
  24.6671	 778.656	    5
  24.6674	 778.675	    5
  24.6678	 778.695	    5
  24.6682	 778.715	    5
  24.6685	 778.734	    5
  24.6689	 778.754	    5
  24.6693	 778.773	    5
  24.6696	 778.793	    5
  24.6700	 778.812	    5
  24.6704	 778.832	    5
  24.6708	 778.852	    5
  24.6711	 778.871	    5
  24.6715	 778.891	    5
  24.6719	 778.910	    5
  24.6722	 778.930	    5
  24.6726	 778.949	    5
  24.6730	 778.969	    5
  24.6733	 778.989	    5
  24.6737	 779.008	    5
  24.6741	 779.028	    5
  24.6745	 779.047	    5
  24.6748	 779.067	    5
  24.6752	 779.086	    5
  24.6756	 779.106	    5
  24.6759	 779.125	    5
  24.6763	 779.145	    5
  24.6767	 779.165	    5
  24.6770	 779.184	    5
  24.6774	 779.204	    5
  24.6778	 779.223	    5
  24.6782	 779.243	    5
  24.6785	 779.262	    5
  24.6789	 779.282	    5
  24.6793	 779.302	    5
  24.6796	 779.321	    5
  24.6800	 779.341	    5
  24.6804	 779.360	    5
  24.6807	 779.380	    5
  24.6811	 779.399	    5
  24.6815	 779.419	    5
  24.6818	 779.439	    5
  24.6822	 779.458	    5
  24.6826	 779.478	    5
  24.6830	 779.497	    5
  24.6833	 779.517	    5
  24.6837	 779.536	    5
  24.6841	 779.556	    5
  24.6844	 779.575	    5
  24.6848	 779.595	    5
  24.6852	 779.615	    5
  24.6855	 779.634	    5
  24.6859	 779.654	    5
  24.6863	 779.673	    5
  24.6867	 779.693	    5
  24.6870	 779.712	    5
  24.6874	 779.732	    5
  24.6878	 779.752	    5
  24.6881	 779.771	    5
  24.6885	 779.791	    5
  24.6889	 779.810	    5
  24.6892	 779.830	    5
  24.6896	 779.849	    5
  24.6900	 779.869	    5
  24.6904	 779.889	    5
  24.6907	 779.908	    5
  24.6911	 779.928	    5
  24.6915	 779.947	    5
  24.6918	 779.967	    5
  24.6922	 779.986	    5
  24.6926	 780.006	    5
  24.6929	 780.026	    5
  24.6933	 780.045	    5
  24.6937	 780.065	    5
  24.6941	 780.084	    5
  24.6944	 780.104	    5
  24.6948	 780.123	    5
  24.6952	 780.143	    5
  24.6955	 780.162	    5
  24.6959	 780.182	    5
  24.6963	 780.202	    5
  24.6966	 780.221	    5
  24.6970	 780.241	    5
  24.6974	 780.260	    5
  24.6978	 780.280	    5
  24.6981	 780.299	    5
  24.6985	 780.319	    5
  24.6989	 780.339	    5
  24.6992	 780.358	    5
  24.6996	 780.378	    5
  24.7000	 780.397	    5
  24.7003	 780.417	    5
  24.7007	 780.436	    5
  24.7011	 780.456	    5
  24.7015	 780.476	    5
  24.7018	 780.495	    5
  24.7022	 780.515	    5
  24.7026	 780.534	    5
  24.7029	 780.554	    5
  24.7033	 780.573	    5
  24.7037	 780.593	    5
  24.7040	 780.612	    5
  24.7044	 780.632	    5
  24.7048	 780.652	    5
  24.7051	 780.671	    5
  24.7055	 780.691	    5
  24.7059	 780.710	    5
  24.7063	 780.730	    5
  24.7066	 780.749	    5
  24.7070	 780.769	    5
  24.7074	 780.789	    5
  24.7077	 780.808	    5
  24.7081	 780.828	    5
  24.7085	 780.847	    5
  24.7088	 780.867	    5
  24.7092	 780.886	    5
  24.7096	 780.906	    5
  24.7100	 780.926	    5
  24.7103	 780.945	    5
  24.7107	 780.965	    5
  24.7111	 780.984	    5
  24.7114	 781.004	    5
  24.7118	 781.023	    5
  24.7122	 781.043	    5
  24.7125	 781.063	    5
  24.7129	 781.082	    5
  24.7133	 781.102	    5
  24.7137	 781.121	    5
  24.7140	 781.141	    5
  24.7144	 781.160	    5
  24.7148	 781.180	    5
  24.7151	 781.199	    5
  24.7155	 781.219	    5
  24.7159	 781.239	    5
  24.7162	 781.258	    5
  24.7166	 781.278	    5
  24.7170	 781.297	    5
  24.7174	 781.317	    5
  24.7177	 781.336	    5
  24.7181	 781.356	    5
  24.7185	 781.376	    5
  24.7188	 781.395	    5
  24.7192	 781.415	    5
  24.7196	 781.434	    5
  24.7199	 781.454	    5
  24.7203	 781.473	    5
  24.7207	 781.493	    5
  24.7211	 781.513	    5
  24.7214	 781.532	    5
  24.7218	 781.552	    5
  24.7222	 781.571	    5
  24.7225	 781.591	    5
  24.7229	 781.610	    5
  24.7233	 781.630	    5
  24.7236	 781.649	    5
  24.7240	 781.669	    5
  24.7244	 781.689	    5
  24.7248	 781.708	    5
  24.7251	 781.728	    5
  24.7255	 781.747	    5
  24.7259	 781.767	    5
  24.7262	 781.786	    5
  24.7266	 781.806	    5
  24.7270	 781.826	    5
  24.7273	 781.845	    5
  24.7277	 781.865	    5
  24.7281	 781.884	    5
  24.7284	 781.904	    5
  24.7288	 781.923	    5
  24.7292	 781.943	    5
  24.7296	 781.963	    5
  24.7299	 781.982	    5
  24.7303	 782.002	    5
  24.7307	 782.021	    5
  24.7310	 782.041	    5
  24.7314	 782.060	    5
  24.7318	 782.080	    5
  24.7321	 782.100	    5
  24.7325	 782.119	    5
  24.7329	 782.139	    5
  24.7333	 782.158	    5
  24.7336	 782.178	    5
  24.7340	 782.197	    5
  24.7344	 782.217	    5
  24.7347	 782.236	    5
  24.7351	 782.256	    5
  24.7355	 782.276	    5
  24.7358	 782.295	    5
  24.7362	 782.315	    5
  24.7366	 782.334	    5
  24.7370	 782.354	    5
  24.7373	 782.373	    5
  24.7377	 782.393	    5
  24.7381	 782.413	    5
  24.7384	 782.432	    5
  24.7388	 782.452	    5
  24.7392	 782.471	    5
  24.7395	 782.491	    5
  24.7399	 782.510	    5
  24.7403	 782.530	    5
  24.7407	 782.550	    5
  24.7410	 782.569	    5
  24.7414	 782.589	    5
  24.7418	 782.608	    5
  24.7421	 782.628	    5
  24.7425	 782.647	    5
  24.7429	 782.667	    5
  24.7432	 782.686	    5
  24.7436	 782.706	    5
  24.7440	 782.726	    5
  24.7444	 782.745	    5
  24.7447	 782.765	    5
  24.7451	 782.784	    5
  24.7455	 782.804	    5
  24.7458	 782.823	    5
  24.7462	 782.843	    5
  24.7466	 782.863	    5
  24.7469	 782.882	    5
  24.7473	 782.902	    5
  24.7477	 782.921	    5
  24.7481	 782.941	    5
  24.7484	 782.960	    5
  24.7488	 782.980	    5
  24.7492	 783.000	    5
  24.7495	 783.019	    5
  24.7499	 783.039	    5
  24.7503	 783.058	    5
  24.7506	 783.078	    5
  24.7510	 783.097	    5
  24.7514	 783.117	    5
  24.7517	 783.137	    5
  24.7521	 783.156	    5
  24.7525	 783.176	    5
  24.7529	 783.195	    5
  24.7532	 783.215	    5
  24.7536	 783.234	    5
  24.7540	 783.254	    5
  24.7543	 783.273	    5
  24.7547	 783.293	    5
  24.7551	 783.313	    5
  24.7554	 783.332	    5
  24.7558	 783.352	    5
  24.7562	 783.371	    5
  24.7566	 783.391	    5
  24.7569	 783.410	    5
  24.7573	 783.430	    5
  24.7577	 783.450	    5
  24.7580	 783.469	    5
  24.7584	 783.489	    5
  24.7588	 783.508	    5
  24.7591	 783.528	    5
  24.7595	 783.547	    5
  24.7599	 783.567	    5
  24.7603	 783.587	    5
  24.7606	 783.606	    5
  24.7610	 783.626	    5
  24.7614	 783.645	    5
  24.7617	 783.665	    5
  24.7621	 783.684	    5
  24.7625	 783.704	    5
  24.7628	 783.723	    5
  24.7632	 783.743	    5
  24.7636	 783.763	    5
  24.7640	 783.782	    5
  24.7643	 783.802	    5
  24.7647	 783.821	    5
  24.7651	 783.841	    5
  24.7654	 783.860	    5
  24.7658	 783.880	    5
  24.7662	 783.900	    5
  24.7665	 783.919	    5
  24.7669	 783.939	    5
  24.7673	 783.958	    5
  24.7677	 783.978	    5
  24.7680	 783.997	    5
  24.7684	 784.017	    5
  24.7688	 784.037	    5
  24.7691	 784.056	    5
  24.7695	 784.076	    5
  24.7699	 784.095	    5
  24.7702	 784.115	    5
  24.7706	 784.134	    5
  24.7710	 784.154	    5
  24.7714	 784.174	    5
  24.7717	 784.193	    5
  24.7721	 784.213	    5
  24.7725	 784.232	    5
  24.7728	 784.252	    5
  24.7732	 784.271	    5
  24.7736	 784.291	    5
  24.7739	 784.310	    5
  24.7743	 784.330	    5
  24.7747	 784.350	    5
  24.7750	 784.369	    5
  24.7754	 784.389	    5
  24.7758	 784.408	    5
  24.7762	 784.428	    5
  24.7765	 784.447	    5
  24.7769	 784.467	    5
  24.7773	 784.487	    5
  24.7776	 784.506	    5
  24.7780	 784.526	    5
  24.7784	 784.545	    5
  24.7787	 784.565	    5
  24.7791	 784.584	    5
  24.7795	 784.604	    5
  24.7799	 784.624	    5
  24.7802	 784.643	    5
  24.7806	 784.663	    5
  24.7810	 784.682	    5
  24.7813	 784.702	    5
  24.7817	 784.721	    5
  24.7821	 784.741	    5
  24.7824	 784.760	    5
  24.7828	 784.780	    5
  24.7832	 784.800	    5
  24.7836	 784.819	    5
  24.7839	 784.839	    5
  24.7843	 784.858	    5
  24.7847	 784.878	    5
  24.7850	 784.897	    5
  24.7854	 784.917	    5
  24.7858	 784.937	    5
  24.7861	 784.956	    5
  24.7865	 784.976	    5
  24.7869	 784.995	    5
  24.7873	 785.015	    5
  24.7876	 785.034	    5
  24.7880	 785.054	    5
  24.7884	 785.074	    5
  24.7887	 785.093	    5
  24.7891	 785.113	    5
  24.7895	 785.132	    5
  24.7898	 785.152	    5
  24.7902	 785.171	    5
  24.7906	 785.191	    5
  24.7910	 785.210	    5
  24.7913	 785.230	    5
  24.7917	 785.250	    5
  24.7921	 785.269	    5
  24.7924	 785.289	    5
  24.7928	 785.308	    5
  24.7932	 785.328	    5
  24.7935	 785.347	    5
  24.7939	 785.367	    5
  24.7943	 785.387	    5
  24.7946	 785.406	    5
  24.7950	 785.426	    5
  24.7954	 785.445	    5
  24.7958	 785.465	    5
  24.7961	 785.484	    5
  24.7965	 785.504	    5
  24.7969	 785.524	    5
  24.7972	 785.543	    5
  24.7976	 785.563	    5
  24.7980	 785.582	    5
  24.7983	 785.602	    5
  24.7987	 785.621	    5
  24.7991	 785.641	    5
  24.7995	 785.661	    5
  24.7998	 785.680	    5
  24.8002	 785.700	    5
  24.8006	 785.719	    5
  24.8009	 785.739	    5
  24.8013	 785.758	    5
  24.8017	 785.778	    5
  24.8020	 785.797	    5
  24.8024	 785.817	    5
  24.8028	 785.837	    5
  24.8032	 785.856	    5
  24.8035	 785.876	    5
  24.8039	 785.895	    5
  24.8043	 785.915	    5
  24.8046	 785.934	    5
  24.8050	 785.954	    5
  24.8054	 785.974	    5
  24.8057	 785.993	    5
  24.8061	 786.013	    5
  24.8065	 786.032	    5
  24.8069	 786.052	    5
  24.8072	 786.071	    5
  24.8076	 786.091	    5
  24.8080	 786.111	    5
  24.8083	 786.130	    5
  24.8087	 786.150	    5
  24.8091	 786.169	    5
  24.8094	 786.189	    5
  24.8098	 786.208	    5
  24.8102	 786.228	    5
  24.8106	 786.247	    5
  24.8109	 786.267	    5
  24.8113	 786.287	    5
  24.8117	 786.306	    5
  24.8120	 786.326	    5
  24.8124	 786.345	    5
  24.8128	 786.365	    5
  24.8131	 786.384	    5
  24.8135	 786.404	    5
  24.8139	 786.424	    5
  24.8143	 786.443	    5
  24.8146	 786.463	    5
  24.8150	 786.482	    5
  24.8154	 786.502	    5
  24.8157	 786.521	    5
  24.8161	 786.541	    5
  24.8165	 786.561	    5
  24.8168	 786.580	    5
  24.8172	 786.600	    5
  24.8176	 786.619	    5
  24.8179	 786.639	    5
  24.8183	 786.658	    5
  24.8187	 786.678	    5
  24.8191	 786.698	    5
  24.8194	 786.717	    5
  24.8198	 786.737	    5
  24.8202	 786.756	    5
  24.8205	 786.776	    5
  24.8209	 786.795	    5
  24.8213	 786.815	    5
  24.8216	 786.834	    5
  24.8220	 786.854	    5
  24.8224	 786.874	    5
  24.8228	 786.893	    5
  24.8231	 786.913	    5
  24.8235	 786.932	    5
  24.8239	 786.952	    5
  24.8242	 786.971	    5
  24.8246	 786.991	    5
  24.8250	 787.011	    5
  24.8253	 787.030	    5
  24.8257	 787.050	    5
  24.8261	 787.069	    5
  24.8265	 787.089	    5
  24.8268	 787.108	    5
  24.8272	 787.128	    5
  24.8276	 787.148	    5
  24.8279	 787.167	    5
  24.8283	 787.187	    5
  24.8287	 787.206	    6
  24.8290	 787.226	    5
  24.8294	 787.245	    5
  24.8298	 787.265	    5
  24.8302	 787.284	    5
  24.8305	 787.304	    5
  24.8309	 787.324	    5
  24.8313	 787.343	    5
  24.8316	 787.363	    5
  24.8320	 787.382	    5
  24.8324	 787.402	    6
  24.8327	 787.421	    5
  24.8331	 787.441	    6
  24.8335	 787.461	    6
  24.8339	 787.480	    6
  24.8342	 787.500	    5
  24.8346	 787.519	    6
  24.8350	 787.539	    5
  24.8353	 787.558	    5
  24.8357	 787.578	    5
  24.8361	 787.598	    5
  24.8364	 787.617	    5
  24.8368	 787.637	    6
  24.8372	 787.656	    6
  24.8376	 787.676	    6
  24.8379	 787.695	    6
  24.8383	 787.715	    6
  24.8387	 787.735	    6
  24.8390	 787.754	    6
  24.8394	 787.774	    6
  24.8398	 787.793	    6
  24.8401	 787.813	    5
  24.8405	 787.832	    6
  24.8409	 787.852	    5
  24.8412	 787.871	    6
  24.8416	 787.891	    6
  24.8420	 787.911	    6
  24.8424	 787.930	    6
  24.8427	 787.950	    6
  24.8431	 787.969	    6
  24.8435	 787.989	    6
  24.8438	 788.008	    6
  24.8442	 788.028	    6
  24.8446	 788.048	    6
  24.8449	 788.067	    6
  24.8453	 788.087	    6
  24.8457	 788.106	    6
  24.8461	 788.126	    6
  24.8464	 788.145	    7
  24.8468	 788.165	    7
  24.8472	 788.185	    7
  24.8475	 788.204	    7
  24.8479	 788.224	    7
  24.8483	 788.243	    7
  24.8486	 788.263	    7
  24.8490	 788.282	    6
  24.8494	 788.302	    6
  24.8498	 788.321	    6
  24.8501	 788.341	    6
  24.8505	 788.361	    7
  24.8509	 788.380	    7
  24.8512	 788.400	    8
  24.8516	 788.419	    8
  24.8520	 788.439	    9
  24.8523	 788.458	    9
  24.8527	 788.478	    9
  24.8531	 788.498	    9
  24.8535	 788.517	    8
  24.8538	 788.537	    8
  24.8542	 788.556	    8
  24.8546	 788.576	    8
  24.8549	 788.595	    8
  24.8553	 788.615	    9
  24.8557	 788.635	   10
  24.8560	 788.654	   11
  24.8564	 788.674	   12
  24.8568	 788.693	   13
  24.8572	 788.713	   13
  24.8575	 788.732	   13
  24.8579	 788.752	   12
  24.8583	 788.772	   12
  24.8586	 788.791	   11
  24.8590	 788.811	   11
  24.8594	 788.830	   12
  24.8597	 788.850	   13
  24.8601	 788.869	   15
  24.8605	 788.889	   18
  24.8609	 788.908	   21
  24.8612	 788.928	   23
  24.8616	 788.948	   25
  24.8620	 788.967	   26
  24.8623	 788.987	   26
  24.8627	 789.006	   25
  24.8631	 789.026	   23
  24.8634	 789.045	   22
  24.8638	 789.065	   22
  24.8642	 789.085	   24
  24.8645	 789.104	   27
  24.8649	 789.124	   32
  24.8653	 789.143	   40
  24.8657	 789.163	   48
  24.8660	 789.182	   54
  24.8664	 789.202	   59
  24.8668	 789.222	   60
  24.8671	 789.241	   58
  24.8675	 789.261	   54
  24.8679	 789.280	   48
  24.8682	 789.300	   41
  24.8686	 789.319	   36
  24.8690	 789.339	   33
  24.8694	 789.358	   34
  24.8697	 789.378	   39
  24.8701	 789.398	   47
  24.8705	 789.417	   55
  24.8708	 789.437	   62
  24.8712	 789.456	   68
  24.8716	 789.476	   70
  24.8719	 789.495	   69
  24.8723	 789.515	   66
  24.8727	 789.535	   62
  24.8731	 789.554	   58
  24.8734	 789.574	   58
  24.8738	 789.593	   63
  24.8742	 789.613	   75
  24.8745	 789.632	   92
  24.8749	 789.652	  115
  24.8753	 789.672	  136
  24.8756	 789.691	  156
  24.8760	 789.711	  167
  24.8764	 789.730	  170
  24.8768	 789.750	  165
  24.8771	 789.769	  152
  24.8775	 789.789	  132
  24.8779	 789.808	  113
  24.8782	 789.828	   99
  24.8786	 789.848	   94
  24.8790	 789.867	  100
  24.8793	 789.887	  118
  24.8797	 789.906	  142
  24.8801	 789.926	  170
  24.8805	 789.945	  192
  24.8808	 789.965	  207
  24.8812	 789.985	  210
  24.8816	 790.004	  203
  24.8819	 790.024	  185
  24.8823	 790.043	  163
  24.8827	 790.063	  142
  24.8830	 790.082	  130
  24.8834	 790.102	  131
  24.8838	 790.122	  150
  24.8842	 790.141	  182
  24.8845	 790.161	  224
  24.8849	 790.180	  255
  24.8853	 790.200	  255
  24.8856	 790.219	  255
  24.8860	 790.239	  255
  24.8864	 790.259	  255
  24.8867	 790.278	  254
  24.8871	 790.298	  211
  24.8875	 790.317	  170
  24.8878	 790.337	  137
  24.8882	 790.356	  116
  24.8886	 790.376	  110
  24.8890	 790.395	  121
  24.8893	 790.415	  143
  24.8897	 790.435	  168
  24.8901	 790.454	  188
  24.8904	 790.474	  199
  24.8908	 790.493	  198
  24.8912	 790.513	  185
  24.8915	 790.532	  162
  24.8919	 790.552	  130
  24.8923	 790.572	   96
  24.8927	 790.591	   65
  24.8930	 790.611	   42
  24.8934	 790.630	   25
  24.8938	 790.650	   17
  24.8941	 790.669	   13
  24.8945	 790.689	   13
  24.8949	 790.709	   14
  24.8952	 790.728	   16
  24.8956	 790.748	   16
  24.8960	 790.767	   16
  24.8964	 790.787	   15
  24.8967	 790.806	   13
  24.8971	 790.826	   11
  24.8975	 790.845	   10
  24.8978	 790.865	    8
  24.8982	 790.885	    7
  24.8986	 790.904	    7
  24.8989	 790.924	    7
  24.8993	 790.943	    7
  24.8997	 790.963	    8
  24.9001	 790.982	    8
  24.9004	 791.002	    8
  24.9008	 791.022	    8
  24.9012	 791.041	    7
  24.9015	 791.061	    7
  24.9019	 791.080	    7
  24.9023	 791.100	    6
  24.9026	 791.119	    6
  24.9030	 791.139	    6
  24.9034	 791.159	    6
  24.9038	 791.178	    6
  24.9041	 791.198	    6
  24.9045	 791.217	    6
  24.9049	 791.237	    6
  24.9052	 791.256	    6
  24.9056	 791.276	    6
  24.9060	 791.296	    6
  24.9063	 791.315	    6
  24.9067	 791.335	    6
  24.9071	 791.354	    6
  24.9075	 791.374	    5
  24.9078	 791.393	    6
  24.9082	 791.413	    5
  24.9086	 791.432	    6
  24.9089	 791.452	    5
  24.9093	 791.472	    6
  24.9097	 791.491	    6
  24.9100	 791.511	    6
  24.9104	 791.530	    6
  24.9108	 791.550	    6
  24.9111	 791.569	    5
  24.9115	 791.589	    5
  24.9119	 791.609	    5
  24.9123	 791.628	    5
  24.9126	 791.648	    5
  24.9130	 791.667	    5
  24.9134	 791.687	    5
  24.9137	 791.706	    5
  24.9141	 791.726	    5
  24.9145	 791.746	    6
  24.9148	 791.765	    5
  24.9152	 791.785	    6
  24.9156	 791.804	    5
  24.9160	 791.824	    5
  24.9163	 791.843	    5
  24.9167	 791.863	    5
  24.9171	 791.882	    5
  24.9174	 791.902	    5
  24.9178	 791.922	    5
  24.9182	 791.941	    5
  24.9185	 791.961	    5
  24.9189	 791.980	    5
  24.9193	 792.000	    5
  24.9197	 792.019	    5
  24.9200	 792.039	    5
  24.9204	 792.059	    5
  24.9208	 792.078	    5
  24.9211	 792.098	    5
  24.9215	 792.117	    5
  24.9219	 792.137	    5
  24.9222	 792.156	    5
  24.9226	 792.176	    5
  24.9230	 792.196	    5
  24.9234	 792.215	    5
  24.9237	 792.235	    5
  24.9241	 792.254	    5
  24.9245	 792.274	    5
  24.9248	 792.293	    5
  24.9252	 792.313	    5
  24.9256	 792.333	    5
  24.9259	 792.352	    5
  24.9263	 792.372	    5
  24.9267	 792.391	    5
  24.9271	 792.411	    5
  24.9274	 792.430	    5
  24.9278	 792.450	    5
  24.9282	 792.469	    5
  24.9285	 792.489	    5
  24.9289	 792.509	    5
  24.9293	 792.528	    5
  24.9296	 792.548	    5
  24.9300	 792.567	    5
  24.9304	 792.587	    5
  24.9308	 792.606	    5
  24.9311	 792.626	    5
  24.9315	 792.646	    5
  24.9319	 792.665	    5
  24.9322	 792.685	    5
  24.9326	 792.704	    5
  24.9330	 792.724	    5
  24.9333	 792.743	    5
  24.9337	 792.763	    5
  24.9341	 792.783	    5
  24.9344	 792.802	    5
  24.9348	 792.822	    5
  24.9352	 792.841	    5
  24.9356	 792.861	    5
  24.9359	 792.880	    5
  24.9363	 792.900	    5
  24.9367	 792.919	    5
  24.9370	 792.939	    5
  24.9374	 792.959	    5
  24.9378	 792.978	    5
  24.9381	 792.998	    5
  24.9385	 793.017	    5
  24.9389	 793.037	    5
  24.9393	 793.056	    5
  24.9396	 793.076	    5
  24.9400	 793.096	    5
  24.9404	 793.115	    5
  24.9407	 793.135	    5
  24.9411	 793.154	    5
  24.9415	 793.174	    5
  24.9418	 793.193	    5
  24.9422	 793.213	    5
  24.9426	 793.233	    5
  24.9430	 793.252	    5
  24.9433	 793.272	    5
  24.9437	 793.291	    5
  24.9441	 793.311	    5
  24.9444	 793.330	    5
  24.9448	 793.350	    5
  24.9452	 793.370	    5
  24.9455	 793.389	    5
  24.9459	 793.409	    5
  24.9463	 793.428	    5
  24.9467	 793.448	    5
  24.9470	 793.467	    5
  24.9474	 793.487	    5
  24.9478	 793.506	    5
  24.9481	 793.526	    5
  24.9485	 793.546	    5
  24.9489	 793.565	    5
  24.9492	 793.585	    5
  24.9496	 793.604	    5
  24.9500	 793.624	    5
  24.9504	 793.643	    5
  24.9507	 793.663	    5
  24.9511	 793.683	    5
  24.9515	 793.702	    5
  24.9518	 793.722	    5
  24.9522	 793.741	    5
  24.9526	 793.761	    5
  24.9529	 793.780	    5
  24.9533	 793.800	    5
  24.9537	 793.820	    5
  24.9541	 793.839	    5
  24.9544	 793.859	    5
  24.9548	 793.878	    5
  24.9552	 793.898	    5
  24.9555	 793.917	    5
  24.9559	 793.937	    5
  24.9563	 793.956	    5
  24.9566	 793.976	    5
  24.9570	 793.996	    5
  24.9574	 794.015	    5
  24.9577	 794.035	    5
  24.9581	 794.054	    5
  24.9585	 794.074	    5
  24.9589	 794.093	    5
  24.9592	 794.113	    5
  24.9596	 794.133	    5
  24.9600	 794.152	    5
  24.9603	 794.172	    5
  24.9607	 794.191	    5
  24.9611	 794.211	    5
  24.9614	 794.230	    5
  24.9618	 794.250	    5
  24.9622	 794.270	    5
  24.9626	 794.289	    5
  24.9629	 794.309	    5
  24.9633	 794.328	    5
  24.9637	 794.348	    5
  24.9640	 794.367	    5
  24.9644	 794.387	    5
  24.9648	 794.406	    5
  24.9651	 794.426	    5
  24.9655	 794.446	    5
  24.9659	 794.465	    4
  24.9663	 794.485	    5
  24.9666	 794.504	    5
  24.9670	 794.524	    5
  24.9674	 794.543	    5
  24.9677	 794.563	    5
  24.9681	 794.583	    5
  24.9685	 794.602	    5
  24.9688	 794.622	    5
  24.9692	 794.641	    5
  24.9696	 794.661	    5
  24.9700	 794.680	    5
  24.9703	 794.700	    5
  24.9707	 794.720	    5
  24.9711	 794.739	    5
  24.9714	 794.759	    5
  24.9718	 794.778	    4
  24.9722	 794.798	    5
  24.9725	 794.817	    4
  24.9729	 794.837	    5
  24.9733	 794.857	    5
  24.9737	 794.876	    5
  24.9740	 794.896	    5
  24.9744	 794.915	    5
  24.9748	 794.935	    5
  24.9751	 794.954	    5
  24.9755	 794.974	    5
  24.9759	 794.993	    5
  24.9762	 795.013	    5
  24.9766	 795.033	    5
  24.9770	 795.052	    5
  24.9774	 795.072	    5
  24.9777	 795.091	    5
  24.9781	 795.111	    5
  24.9785	 795.130	    5
  24.9788	 795.150	    5
  24.9792	 795.170	    5
  24.9796	 795.189	    5
  24.9799	 795.209	    4
  24.9803	 795.228	    5
  24.9807	 795.248	    5
  24.9810	 795.267	    5
  24.9814	 795.287	    5
  24.9818	 795.307	    5
  24.9822	 795.326	    5
  24.9825	 795.346	    5
  24.9829	 795.365	    5
  24.9833	 795.385	    5
  24.9836	 795.404	    5
  24.9840	 795.424	    5
  24.9844	 795.443	    5
  24.9847	 795.463	    5
  24.9851	 795.483	    5
  24.9855	 795.502	    5
  24.9859	 795.522	    4
  24.9862	 795.541	    5
  24.9866	 795.561	    4
  24.9870	 795.580	    5
  24.9873	 795.600	    5
  24.9877	 795.620	    5
  24.9881	 795.639	    5
  24.9884	 795.659	    5
  24.9888	 795.678	    5
  24.9892	 795.698	    5
  24.9896	 795.717	    5
  24.9899	 795.737	    5
  24.9903	 795.757	    5
  24.9907	 795.776	    5
  24.9910	 795.796	    5
  24.9914	 795.815	    5
  24.9918	 795.835	    4
  24.9921	 795.854	    5
  24.9925	 795.874	    5
  24.9929	 795.894	    5
  24.9933	 795.913	    4
  24.9936	 795.933	    5
  24.9940	 795.952	    4
  24.9944	 795.972	    5
  24.9947	 795.991	    4
  24.9951	 796.011	    5
  24.9955	 796.030	    5
  24.9958	 796.050	    5
  24.9962	 796.070	    5
  24.9966	 796.089	    5
  24.9970	 796.109	    5
  24.9973	 796.128	    5
  24.9977	 796.148	    5
  24.9981	 796.167	    5
  24.9984	 796.187	    4
  24.9988	 796.207	    5
  24.9992	 796.226	    4
  24.9995	 796.246	    5
  24.9999	 796.265	    4
  25.0003	 796.285	    5
  25.0007	 796.304	    5
  25.0010	 796.324	    5
  25.0014	 796.344	    5
  25.0018	 796.363	    5
  25.0021	 796.383	    5
  25.0025	 796.402	    5
  25.0029	 796.422	    5
  25.0032	 796.441	    5
  25.0036	 796.461	    5
  25.0040	 796.480	    5
  25.0043	 796.500	    5
  25.0047	 796.520	    5
  25.0051	 796.539	    4
  25.0055	 796.559	    5
  25.0058	 796.578	    5
  25.0062	 796.598	    5
  25.0066	 796.617	    5
  25.0069	 796.637	    5
  25.0073	 796.657	    5
  25.0077	 796.676	    5
  25.0080	 796.696	    4
  25.0084	 796.715	    5
  25.0088	 796.735	    5
  25.0092	 796.754	    5
  25.0095	 796.774	    5
  25.0099	 796.794	    5
  25.0103	 796.813	    4
  25.0106	 796.833	    5
  25.0110	 796.852	    5
  25.0114	 796.872	    5
  25.0117	 796.891	    4
  25.0121	 796.911	    5
  25.0125	 796.931	    4
  25.0129	 796.950	    5
  25.0132	 796.970	    5
  25.0136	 796.989	    5
  25.0140	 797.009	    5
  25.0143	 797.028	    5
  25.0147	 797.048	    5
  25.0151	 797.067	    5
  25.0154	 797.087	    4
  25.0158	 797.107	    5
  25.0162	 797.126	    5
  25.0166	 797.146	    5
  25.0169	 797.165	    5
  25.0173	 797.185	    5
  25.0177	 797.204	    4
  25.0180	 797.224	    5
  25.0184	 797.244	    4
  25.0188	 797.263	    5
  25.0191	 797.283	    5
  25.0195	 797.302	    5
  25.0199	 797.322	    4
  25.0203	 797.341	    5
  25.0206	 797.361	    5
  25.0210	 797.381	    5
  25.0214	 797.400	    5
  25.0217	 797.420	    5
  25.0221	 797.439	    5
  25.0225	 797.459	    5
  25.0228	 797.478	    5
  25.0232	 797.498	    5
  25.0236	 797.517	    4
  25.0240	 797.537	    5
  25.0243	 797.557	    4
  25.0247	 797.576	    5
  25.0251	 797.596	    4
  25.0254	 797.615	    5
  25.0258	 797.635	    4
  25.0262	 797.654	    5
  25.0265	 797.674	    4
  25.0269	 797.694	    5
  25.0273	 797.713	    5
  25.0276	 797.733	    5
  25.0280	 797.752	    5
  25.0284	 797.772	    5
  25.0288	 797.791	    5
  25.0291	 797.811	    5
  25.0295	 797.831	    5
  25.0299	 797.850	    5
  25.0302	 797.870	    5
  25.0306	 797.889	    5
  25.0310	 797.909	    5
  25.0313	 797.928	    5
  25.0317	 797.948	    5
  25.0321	 797.968	    5
  25.0325	 797.987	    5
  25.0328	 798.007	    5
  25.0332	 798.026	    5
  25.0336	 798.046	    5
  25.0339	 798.065	    5
  25.0343	 798.085	    5
  25.0347	 798.104	    5
  25.0350	 798.124	    5
  25.0354	 798.144	    4
  25.0358	 798.163	    5
  25.0362	 798.183	    5
  25.0365	 798.202	    5
  25.0369	 798.222	    5
  25.0373	 798.241	    5
  25.0376	 798.261	    5
  25.0380	 798.281	    5
  25.0384	 798.300	    4
  25.0387	 798.320	    5
  25.0391	 798.339	    5
  25.0395	 798.359	    5
  25.0399	 798.378	    5
  25.0402	 798.398	    5
  25.0406	 798.418	    4
  25.0410	 798.437	    5
  25.0413	 798.457	    5
  25.0417	 798.476	    5
  25.0421	 798.496	    5
  25.0424	 798.515	    5
  25.0428	 798.535	    5
  25.0432	 798.554	    5
  25.0436	 798.574	    4
  25.0439	 798.594	    5
  25.0443	 798.613	    4
  25.0447	 798.633	    5
  25.0450	 798.652	    5
  25.0454	 798.672	    5
  25.0458	 798.691	    5
  25.0461	 798.711	    5
  25.0465	 798.731	    5
  25.0469	 798.750	    5
  25.0472	 798.770	    5
  25.0476	 798.789	    5
  25.0480	 798.809	    5
  25.0484	 798.828	    5
  25.0487	 798.848	    5
  25.0491	 798.868	    5
  25.0495	 798.887	    5
  25.0498	 798.907	    5
  25.0502	 798.926	    5
  25.0506	 798.946	    5
  25.0509	 798.965	    5
  25.0513	 798.985	    5
  25.0517	 799.005	    5
  25.0521	 799.024	    5
  25.0524	 799.044	    5
  25.0528	 799.063	    5
  25.0532	 799.083	    5
  25.0535	 799.102	    5
  25.0539	 799.122	    5
  25.0543	 799.141	    5
  25.0546	 799.161	    5
  25.0550	 799.181	    5
  25.0554	 799.200	    5
  25.0558	 799.220	    5
  25.0561	 799.239	    5
  25.0565	 799.259	    5
  25.0569	 799.278	    5
  25.0572	 799.298	    5
  25.0576	 799.318	    5
  25.0580	 799.337	    5
  25.0583	 799.357	    5
  25.0587	 799.376	    5
  25.0591	 799.396	    5
  25.0595	 799.415	    5
  25.0598	 799.435	    5
  25.0602	 799.455	    5
  25.0606	 799.474	    5
  25.0609	 799.494	    5
  25.0613	 799.513	    5
  25.0617	 799.533	    5
  25.0620	 799.552	    5
  25.0624	 799.572	    5
  25.0628	 799.591	    5
  25.0632	 799.611	    5
  25.0635	 799.631	    5
  25.0639	 799.650	    5
  25.0643	 799.670	    5
  25.0646	 799.689	    5
  25.0650	 799.709	    5
  25.0654	 799.728	    5
  25.0657	 799.748	    5
  25.0661	 799.768	    5
  25.0665	 799.787	    5
  25.0669	 799.807	    5
  25.0672	 799.826	    4
  25.0676	 799.846	    5
  25.0680	 799.865	    4
  25.0683	 799.885	    5
  25.0687	 799.905	    4
  25.0691	 799.924	    5
  25.0694	 799.944	    4
  25.0698	 799.963	    5
  25.0702	 799.983	    5
  25.0705	 800.002	    5
  25.0709	 800.022	    5
  25.0713	 800.041	    5
  25.0717	 800.061	    5
  25.0720	 800.081	    5
  25.0724	 800.100	    4
  25.0728	 800.120	    5
  25.0731	 800.139	    4
  25.0735	 800.159	    5
  25.0739	 800.178	    4
  25.0742	 800.198	    5
  25.0746	 800.218	    5
  25.0750	 800.237	    5
  25.0754	 800.257	    5
  25.0757	 800.276	    5
  25.0761	 800.296	    5
  25.0765	 800.315	    5
  25.0768	 800.335	    5
  25.0772	 800.355	    5
  25.0776	 800.374	    4
  25.0779	 800.394	    5
  25.0783	 800.413	    5
  25.0787	 800.433	    5
  25.0791	 800.452	    4
  25.0794	 800.472	    5
  25.0798	 800.492	    4
  25.0802	 800.511	    5
  25.0805	 800.531	    4
  25.0809	 800.550	    5
  25.0813	 800.570	    4
  25.0816	 800.589	    5
  25.0820	 800.609	    5
  25.0824	 800.628	    5
  25.0828	 800.648	    5
  25.0831	 800.668	    5
  25.0835	 800.687	    5
  25.0839	 800.707	    5
  25.0842	 800.726	    5
  25.0846	 800.746	    5
  25.0850	 800.765	    5
  25.0853	 800.785	    5
  25.0857	 800.805	    4
  25.0861	 800.824	    5
  25.0865	 800.844	    4
  25.0868	 800.863	    5
  25.0872	 800.883	    4
  25.0876	 800.902	    5
  25.0879	 800.922	    4
  25.0883	 800.942	    5
  25.0887	 800.961	    5
  25.0890	 800.981	    5
  25.0894	 801.000	    4
  25.0898	 801.020	    5
  25.0902	 801.039	    5
  25.0905	 801.059	    5
  25.0909	 801.078	    5
  25.0913	 801.098	    5
  25.0916	 801.118	    5
  25.0920	 801.137	    5
  25.0924	 801.157	    4
  25.0927	 801.176	    5
  25.0931	 801.196	    5
  25.0935	 801.215	    5
  25.0938	 801.235	    4
  25.0942	 801.255	    5
  25.0946	 801.274	    5
  25.0950	 801.294	    5
  25.0953	 801.313	    5
  25.0957	 801.333	    5
  25.0961	 801.352	    5
  25.0964	 801.372	    5
  25.0968	 801.392	    5
  25.0972	 801.411	    5
  25.0975	 801.431	    5
  25.0979	 801.450	    5
  25.0983	 801.470	    4
  25.0987	 801.489	    5
  25.0990	 801.509	    4
  25.0994	 801.529	    5
  25.0998	 801.548	    5
  25.1001	 801.568	    5
  25.1005	 801.587	    5
  25.1009	 801.607	    5
  25.1012	 801.626	    5
  25.1016	 801.646	    5
  25.1020	 801.665	    5
  25.1024	 801.685	    5
  25.1027	 801.705	    5
  25.1031	 801.724	    5
  25.1035	 801.744	    5
  25.1038	 801.763	    5
  25.1042	 801.783	    5
  25.1046	 801.802	    5
  25.1049	 801.822	    5
  25.1053	 801.842	    5
  25.1057	 801.861	    4
  25.1061	 801.881	    5
  25.1064	 801.900	    4
  25.1068	 801.920	    5
  25.1072	 801.939	    5
  25.1075	 801.959	    5
  25.1079	 801.979	    4
  25.1083	 801.998	    5
  25.1086	 802.018	    4
  25.1090	 802.037	    5
  25.1094	 802.057	    4
  25.1098	 802.076	    5
  25.1101	 802.096	    4
  25.1105	 802.115	    5
  25.1109	 802.135	    4
  25.1112	 802.155	    5
  25.1116	 802.174	    4
  25.1120	 802.194	    5
  25.1123	 802.213	    4
  25.1127	 802.233	    5
  25.1131	 802.252	    4
  25.1135	 802.272	    5
  25.1138	 802.292	    5
  25.1142	 802.311	    5
  25.1146	 802.331	    4
  25.1149	 802.350	    5
  25.1153	 802.370	    5
  25.1157	 802.389	    5
  25.1160	 802.409	    4
  25.1164	 802.429	    5
  25.1168	 802.448	    4
  25.1171	 802.468	    5
  25.1175	 802.487	    5
  25.1179	 802.507	    5
  25.1183	 802.526	    4
  25.1186	 802.546	    5
  25.1190	 802.566	    4
  25.1194	 802.585	    5
  25.1197	 802.605	    5
  25.1201	 802.624	    5
  25.1205	 802.644	    5
  25.1208	 802.663	    5
  25.1212	 802.683	    5
  25.1216	 802.702	    5
  25.1220	 802.722	    5
  25.1223	 802.742	    5
  25.1227	 802.761	    5
  25.1231	 802.781	    5
  25.1234	 802.800	    4
  25.1238	 802.820	    5
  25.1242	 802.839	    4
  25.1245	 802.859	    5
  25.1249	 802.879	    4
  25.1253	 802.898	    5
  25.1257	 802.918	    5
  25.1260	 802.937	    5
  25.1264	 802.957	    4
  25.1268	 802.976	    5
  25.1271	 802.996	    4
  25.1275	 803.016	    5
  25.1279	 803.035	    4
  25.1282	 803.055	    5
  25.1286	 803.074	    4
  25.1290	 803.094	    5
  25.1294	 803.113	    4
  25.1297	 803.133	    5
  25.1301	 803.152	    5
  25.1305	 803.172	    5
  25.1308	 803.192	    5
  25.1312	 803.211	    5
  25.1316	 803.231	    4
  25.1319	 803.250	    5
  25.1323	 803.270	    5
  25.1327	 803.289	    5
  25.1331	 803.309	    5
  25.1334	 803.329	    5
  25.1338	 803.348	    4
  25.1342	 803.368	    5
  25.1345	 803.387	    5
  25.1349	 803.407	    5
  25.1353	 803.426	    5
  25.1356	 803.446	    5
  25.1360	 803.466	    5
  25.1364	 803.485	    5
  25.1368	 803.505	    5
  25.1371	 803.524	    5
  25.1375	 803.544	    5
  25.1379	 803.563	    5
  25.1382	 803.583	    5
  25.1386	 803.603	    5
  25.1390	 803.622	    5
  25.1393	 803.642	    5
  25.1397	 803.661	    5
  25.1401	 803.681	    5
  25.1404	 803.700	    5
  25.1408	 803.720	    5
  25.1412	 803.739	    5
  25.1416	 803.759	    5
  25.1419	 803.779	    5
  25.1423	 803.798	    5
  25.1427	 803.818	    5
  25.1430	 803.837	    5
  25.1434	 803.857	    5
  25.1438	 803.876	    5
  25.1441	 803.896	    5
  25.1445	 803.916	    5
  25.1449	 803.935	    5
  25.1453	 803.955	    5
  25.1456	 803.974	    5
  25.1460	 803.994	    5
  25.1464	 804.013	    5
  25.1467	 804.033	    5
  25.1471	 804.053	    5
  25.1475	 804.072	    5
  25.1478	 804.092	    5
  25.1482	 804.111	    5
  25.1486	 804.131	    5
  25.1490	 804.150	    5
  25.1493	 804.170	    5
  25.1497	 804.189	    5
  25.1501	 804.209	    5
  25.1504	 804.229	    5
  25.1508	 804.248	    5
  25.1512	 804.268	    5
  25.1515	 804.287	    5
  25.1519	 804.307	    5
  25.1523	 804.326	    5
  25.1527	 804.346	    5
  25.1530	 804.366	    5
  25.1534	 804.385	    5
  25.1538	 804.405	    5
  25.1541	 804.424	    5
  25.1545	 804.444	    5
  25.1549	 804.463	    5
  25.1552	 804.483	    5
  25.1556	 804.503	    5
  25.1560	 804.522	    5
  25.1564	 804.542	    5
  25.1567	 804.561	    5
  25.1571	 804.581	    5
  25.1575	 804.600	    5
  25.1578	 804.620	    5
  25.1582	 804.639	    5
  25.1586	 804.659	    5
  25.1589	 804.679	    5
  25.1593	 804.698	    5
  25.1597	 804.718	    5
  25.1601	 804.737	    5
  25.1604	 804.757	    5
  25.1608	 804.776	    5
  25.1612	 804.796	    5
  25.1615	 804.816	    5
  25.1619	 804.835	    5
  25.1623	 804.855	    5
  25.1626	 804.874	    5
  25.1630	 804.894	    5
  25.1634	 804.913	    5
  25.1637	 804.933	    5
  25.1641	 804.953	    5
  25.1645	 804.972	    5
  25.1649	 804.992	    5
  25.1652	 805.011	    5
  25.1656	 805.031	    5
  25.1660	 805.050	    5
  25.1663	 805.070	    5
  25.1667	 805.090	    5
  25.1671	 805.109	    5
  25.1674	 805.129	    5
  25.1678	 805.148	    5
  25.1682	 805.168	    5
  25.1686	 805.187	    5
  25.1689	 805.207	    5
  25.1693	 805.226	    5
  25.1697	 805.246	    5
  25.1700	 805.266	    5
  25.1704	 805.285	    5
  25.1708	 805.305	    5
  25.1711	 805.324	    5
  25.1715	 805.344	    5
  25.1719	 805.363	    5
  25.1723	 805.383	    5
  25.1726	 805.403	    5
  25.1730	 805.422	    5
  25.1734	 805.442	    5
  25.1737	 805.461	    5
  25.1741	 805.481	    5
  25.1745	 805.500	    5
  25.1748	 805.520	    5
  25.1752	 805.540	    5
  25.1756	 805.559	    5
  25.1760	 805.579	    4
  25.1763	 805.598	    5
  25.1767	 805.618	    4
  25.1771	 805.637	    5
  25.1774	 805.657	    5
  25.1778	 805.676	    5
  25.1782	 805.696	    5
  25.1785	 805.716	    5
  25.1789	 805.735	    5
  25.1793	 805.755	    5
  25.1797	 805.774	    5
  25.1800	 805.794	    5
  25.1804	 805.813	    5
  25.1808	 805.833	    5
  25.1811	 805.853	    5
  25.1815	 805.872	    5
  25.1819	 805.892	    5
  25.1822	 805.911	    5
  25.1826	 805.931	    4
  25.1830	 805.950	    5
  25.1834	 805.970	    4
  25.1837	 805.990	    5
  25.1841	 806.009	    5
  25.1845	 806.029	    5
  25.1848	 806.048	    5
  25.1852	 806.068	    5
  25.1856	 806.087	    4
  25.1859	 806.107	    5
  25.1863	 806.127	    4
  25.1867	 806.146	    5
  25.1870	 806.166	    5
  25.1874	 806.185	    5
  25.1878	 806.205	    5
  25.1882	 806.224	    5
  25.1885	 806.244	    4
  25.1889	 806.263	    5
  25.1893	 806.283	    5
  25.1896	 806.303	    5
  25.1900	 806.322	    5
  25.1904	 806.342	    5
  25.1907	 806.361	    4
  25.1911	 806.381	    5
  25.1915	 806.400	    5
  25.1919	 806.420	    5
  25.1922	 806.440	    5
  25.1926	 806.459	    5
  25.1930	 806.479	    4
  25.1933	 806.498	    5
  25.1937	 806.518	    4
  25.1941	 806.537	    5
  25.1944	 806.557	    5
  25.1948	 806.577	    5
  25.1952	 806.596	    4
  25.1956	 806.616	    5
  25.1959	 806.635	    5
  25.1963	 806.655	    5
  25.1967	 806.674	    5
  25.1970	 806.694	    5
  25.1974	 806.713	    5
  25.1978	 806.733	    5
  25.1981	 806.753	    4
  25.1985	 806.772	    5
  25.1989	 806.792	    4
  25.1993	 806.811	    5
  25.1996	 806.831	    5
  25.2000	 806.850	    5
  25.2004	 806.870	    5
  25.2007	 806.890	    5
  25.2011	 806.909	    5
  25.2015	 806.929	    5
  25.2018	 806.948	    4
  25.2022	 806.968	    5
  25.2026	 806.987	    4
  25.2030	 807.007	    5
  25.2033	 807.027	    4
  25.2037	 807.046	    5
  25.2041	 807.066	    5
  25.2044	 807.085	    5
  25.2048	 807.105	    5
  25.2052	 807.124	    5
  25.2055	 807.144	    5
  25.2059	 807.164	    5
  25.2063	 807.183	    4
  25.2067	 807.203	    5
  25.2070	 807.222	    4
  25.2074	 807.242	    5
  25.2078	 807.261	    4
  25.2081	 807.281	    5
  25.2085	 807.300	    4
  25.2089	 807.320	    5
  25.2092	 807.340	    4
  25.2096	 807.359	    5
  25.2100	 807.379	    4
  25.2103	 807.398	    5
  25.2107	 807.418	    4
  25.2111	 807.437	    5
  25.2115	 807.457	    5
  25.2118	 807.477	    5
  25.2122	 807.496	    5
  25.2126	 807.516	    5
  25.2129	 807.535	    5
  25.2133	 807.555	    5
  25.2137	 807.574	    5
  25.2140	 807.594	    5
  25.2144	 807.614	    4
  25.2148	 807.633	    5
  25.2152	 807.653	    4
  25.2155	 807.672	    5
  25.2159	 807.692	    5
  25.2163	 807.711	    5
  25.2166	 807.731	    4
  25.2170	 807.750	    5
  25.2174	 807.770	    4
  25.2177	 807.790	    5
  25.2181	 807.809	    5
  25.2185	 807.829	    5
  25.2189	 807.848	    4
  25.2192	 807.868	    5
  25.2196	 807.887	    4
  25.2200	 807.907	    5
  25.2203	 807.927	    5
  25.2207	 807.946	    5
  25.2211	 807.966	    5
  25.2214	 807.985	    5
  25.2218	 808.005	    4
  25.2222	 808.024	    5
  25.2226	 808.044	    4
  25.2229	 808.064	    5
  25.2233	 808.083	    5
  25.2237	 808.103	    5
  25.2240	 808.122	    5
  25.2244	 808.142	    5
  25.2248	 808.161	    4
  25.2251	 808.181	    5
  25.2255	 808.201	    4
  25.2259	 808.220	    5
  25.2263	 808.240	    4
  25.2266	 808.259	    5
  25.2270	 808.279	    4
  25.2274	 808.298	    5
  25.2277	 808.318	    4
  25.2281	 808.337	    5
  25.2285	 808.357	    4
  25.2288	 808.377	    5
  25.2292	 808.396	    4
  25.2296	 808.416	    5
  25.2300	 808.435	    4
  25.2303	 808.455	    5
  25.2307	 808.474	    4
  25.2311	 808.494	    5
  25.2314	 808.514	    5
  25.2318	 808.533	    5
  25.2322	 808.553	    4
  25.2325	 808.572	    5
  25.2329	 808.592	    4
  25.2333	 808.611	    5
  25.2336	 808.631	    4
  25.2340	 808.651	    5
  25.2344	 808.670	    4
  25.2348	 808.690	    5
  25.2351	 808.709	    4
  25.2355	 808.729	    5
  25.2359	 808.748	    4
  25.2362	 808.768	    5
  25.2366	 808.787	    4
  25.2370	 808.807	    5
  25.2373	 808.827	    4
  25.2377	 808.846	    5
  25.2381	 808.866	    4
  25.2385	 808.885	    5
  25.2388	 808.905	    4
  25.2392	 808.924	    5
  25.2396	 808.944	    4
  25.2399	 808.964	    5
  25.2403	 808.983	    4
  25.2407	 809.003	    5
  25.2410	 809.022	    4
  25.2414	 809.042	    5
  25.2418	 809.061	    4
  25.2422	 809.081	    5
  25.2425	 809.101	    4
  25.2429	 809.120	    5
  25.2433	 809.140	    4
  25.2436	 809.159	    5
  25.2440	 809.179	    4
  25.2444	 809.198	    5
  25.2447	 809.218	    4
  25.2451	 809.238	    5
  25.2455	 809.257	    4
  25.2459	 809.277	    5
  25.2462	 809.296	    4
  25.2466	 809.316	    5
  25.2470	 809.335	    4
  25.2473	 809.355	    5
  25.2477	 809.374	    4
  25.2481	 809.394	    5
  25.2484	 809.414	    4
  25.2488	 809.433	    5
  25.2492	 809.453	    5
  25.2496	 809.472	    5
  25.2499	 809.492	    5
  25.2503	 809.511	    5
  25.2507	 809.531	    5
  25.2510	 809.551	    5
  25.2514	 809.570	    5
  25.2518	 809.590	    5
  25.2521	 809.609	    5
  25.2525	 809.629	    5
  25.2529	 809.648	    5
  25.2533	 809.668	    5
  25.2536	 809.688	    5
  25.2540	 809.707	    5
  25.2544	 809.727	    5
  25.2547	 809.746	    5
  25.2551	 809.766	    5
  25.2555	 809.785	    5
  25.2558	 809.805	    5
  25.2562	 809.824	    5
  25.2566	 809.844	    5
  25.2569	 809.864	    5
  25.2573	 809.883	    5
  25.2577	 809.903	    5
  25.2581	 809.922	    5
  25.2584	 809.942	    5
  25.2588	 809.961	    5
  25.2592	 809.981	    5
  25.2595	 810.001	    5
  25.2599	 810.020	    5
  25.2603	 810.040	    4
  25.2606	 810.059	    5
  25.2610	 810.079	    5
  25.2614	 810.098	    5
  25.2618	 810.118	    5
  25.2621	 810.138	    5
  25.2625	 810.157	    4
  25.2629	 810.177	    5
  25.2632	 810.196	    4
  25.2636	 810.216	    5
  25.2640	 810.235	    5
  25.2643	 810.255	    5
  25.2647	 810.274	    5
  25.2651	 810.294	    5
  25.2655	 810.314	    4
  25.2658	 810.333	    5
  25.2662	 810.353	    5
  25.2666	 810.372	    5
  25.2669	 810.392	    5
  25.2673	 810.411	    5
  25.2677	 810.431	    5
  25.2680	 810.451	    5
  25.2684	 810.470	    5
  25.2688	 810.490	    5
  25.2692	 810.509	    5
  25.2695	 810.529	    5
  25.2699	 810.548	    5
  25.2703	 810.568	    5
  25.2706	 810.588	    5
  25.2710	 810.607	    5
  25.2714	 810.627	    4
  25.2717	 810.646	    5
  25.2721	 810.666	    5
  25.2725	 810.685	    5
  25.2729	 810.705	    4
  25.2732	 810.725	    5
  25.2736	 810.744	    4
  25.2740	 810.764	    5
  25.2743	 810.783	    5
  25.2747	 810.803	    5
  25.2751	 810.822	    5
  25.2754	 810.842	    5
  25.2758	 810.861	    5
  25.2762	 810.881	    5
  25.2766	 810.901	    5
  25.2769	 810.920	    5
  25.2773	 810.940	    4
  25.2777	 810.959	    5
  25.2780	 810.979	    5
  25.2784	 810.998	    5
  25.2788	 811.018	    4
  25.2791	 811.038	    5
  25.2795	 811.057	    5
  25.2799	 811.077	    5
  25.2802	 811.096	    4
  25.2806	 811.116	    5
  25.2810	 811.135	    4
  25.2814	 811.155	    5
  25.2817	 811.175	    4
  25.2821	 811.194	    5
  25.2825	 811.214	    4
  25.2828	 811.233	    5
  25.2832	 811.253	    5
  25.2836	 811.272	    5
  25.2839	 811.292	    4
  25.2843	 811.311	    5
  25.2847	 811.331	    5
  25.2851	 811.351	    5
  25.2854	 811.370	    4
  25.2858	 811.390	    5
  25.2862	 811.409	    5
  25.2865	 811.429	    5
  25.2869	 811.448	    4
  25.2873	 811.468	    5
  25.2876	 811.488	    4
  25.2880	 811.507	    5
  25.2884	 811.527	    4
  25.2888	 811.546	    5
  25.2891	 811.566	    5
  25.2895	 811.585	    5
  25.2899	 811.605	    4
  25.2902	 811.625	    5
  25.2906	 811.644	    4
  25.2910	 811.664	    5
  25.2913	 811.683	    4
  25.2917	 811.703	    5
  25.2921	 811.722	    4
  25.2925	 811.742	    5
  25.2928	 811.762	    4
  25.2932	 811.781	    5
  25.2936	 811.801	    4
  25.2939	 811.820	    5
  25.2943	 811.840	    4
  25.2947	 811.859	    5
  25.2950	 811.879	    4
  25.2954	 811.898	    5
  25.2958	 811.918	    4
  25.2962	 811.938	    5
  25.2965	 811.957	    5
  25.2969	 811.977	    5
  25.2973	 811.996	    5
  25.2976	 812.016	    5
  25.2980	 812.035	    5
  25.2984	 812.055	    5
  25.2987	 812.075	    4
  25.2991	 812.094	    5
  25.2995	 812.114	    4
  25.2998	 812.133	    5
  25.3002	 812.153	    4
  25.3006	 812.172	    5
  25.3010	 812.192	    4
  25.3013	 812.212	    5
  25.3017	 812.231	    4
  25.3021	 812.251	    5
  25.3024	 812.270	    5
  25.3028	 812.290	    5
  25.3032	 812.309	    4
  25.3035	 812.329	    5
  25.3039	 812.348	    4
  25.3043	 812.368	    5
  25.3047	 812.388	    4
  25.3050	 812.407	    5
  25.3054	 812.427	    4
  25.3058	 812.446	    5
  25.3061	 812.466	    4
  25.3065	 812.485	    5
  25.3069	 812.505	    5
  25.3072	 812.525	    5
  25.3076	 812.544	    5
  25.3080	 812.564	    5
  25.3084	 812.583	    5
  25.3087	 812.603	    5
  25.3091	 812.622	    4
  25.3095	 812.642	    5
  25.3098	 812.662	    4
  25.3102	 812.681	    5
  25.3106	 812.701	    4
  25.3109	 812.720	    5
  25.3113	 812.740	    4
  25.3117	 812.759	    5
  25.3121	 812.779	    4
  25.3124	 812.799	    5
  25.3128	 812.818	    4
  25.3132	 812.838	    5
  25.3135	 812.857	    5
  25.3139	 812.877	    5
  25.3143	 812.896	    5
  25.3146	 812.916	    5
  25.3150	 812.935	    5
  25.3154	 812.955	    5
  25.3158	 812.975	    5
  25.3161	 812.994	    5
  25.3165	 813.014	    5
  25.3169	 813.033	    5
  25.3172	 813.053	    5
  25.3176	 813.072	    5
  25.3180	 813.092	    5
  25.3183	 813.112	    5
  25.3187	 813.131	    5
  25.3191	 813.151	    5
  25.3195	 813.170	    5
  25.3198	 813.190	    5
  25.3202	 813.209	    5
  25.3206	 813.229	    5
  25.3209	 813.249	    5
  25.3213	 813.268	    5
  25.3217	 813.288	    5
  25.3220	 813.307	    5
  25.3224	 813.327	    5
  25.3228	 813.346	    5
  25.3231	 813.366	    5
  25.3235	 813.385	    5
  25.3239	 813.405	    5
  25.3243	 813.425	    5
  25.3246	 813.444	    5
  25.3250	 813.464	    5
  25.3254	 813.483	    5
  25.3257	 813.503	    5
  25.3261	 813.522	    4
  25.3265	 813.542	    5
  25.3268	 813.562	    4
  25.3272	 813.581	    5
  25.3276	 813.601	    4
  25.3280	 813.620	    5
  25.3283	 813.640	    5
  25.3287	 813.659	    5
  25.3291	 813.679	    4
  25.3294	 813.699	    5
  25.3298	 813.718	    4
  25.3302	 813.738	    5
  25.3305	 813.757	    4
  25.3309	 813.777	    5
  25.3313	 813.796	    5
  25.3317	 813.816	    5
  25.3320	 813.836	    5
  25.3324	 813.855	    5
  25.3328	 813.875	    5
  25.3331	 813.894	    5
  25.3335	 813.914	    4
  25.3339	 813.933	    5
  25.3342	 813.953	    4
  25.3346	 813.972	    5
  25.3350	 813.992	    4
  25.3354	 814.012	    5
  25.3357	 814.031	    5
  25.3361	 814.051	    5
  25.3365	 814.070	    5
  25.3368	 814.090	    5
  25.3372	 814.109	    4
  25.3376	 814.129	    5
  25.3379	 814.149	    4
  25.3383	 814.168	    5
  25.3387	 814.188	    4
  25.3391	 814.207	    5
  25.3394	 814.227	    5
  25.3398	 814.246	    5
  25.3402	 814.266	    4
  25.3405	 814.286	    5
  25.3409	 814.305	    4
  25.3413	 814.325	    5
  25.3416	 814.344	    4
  25.3420	 814.364	    5
  25.3424	 814.383	    4
  25.3428	 814.403	    5
  25.3431	 814.422	    4
  25.3435	 814.442	    5
  25.3439	 814.462	    4
  25.3442	 814.481	    5
  25.3446	 814.501	    5
  25.3450	 814.520	    5
  25.3453	 814.540	    4
  25.3457	 814.559	    5
  25.3461	 814.579	    4
  25.3464	 814.599	    5
  25.3468	 814.618	    4
  25.3472	 814.638	    5
  25.3476	 814.657	    4
  25.3479	 814.677	    5
  25.3483	 814.696	    5
  25.3487	 814.716	    5
  25.3490	 814.736	    4
  25.3494	 814.755	    5
  25.3498	 814.775	    5
  25.3501	 814.794	    5
  25.3505	 814.814	    5
  25.3509	 814.833	    5
  25.3513	 814.853	    4
  25.3516	 814.872	    5
  25.3520	 814.892	    4
  25.3524	 814.912	    5
  25.3527	 814.931	    4
  25.3531	 814.951	    5
  25.3535	 814.970	    5
  25.3538	 814.990	    5
  25.3542	 815.009	    5
  25.3546	 815.029	    5
  25.3550	 815.049	    5
  25.3553	 815.068	    5
  25.3557	 815.088	    5
  25.3561	 815.107	    5
  25.3564	 815.127	    4
  25.3568	 815.146	    5
  25.3572	 815.166	    4
  25.3575	 815.186	    5
  25.3579	 815.205	    5
  25.3583	 815.225	    5
  25.3587	 815.244	    4
  25.3590	 815.264	    5
  25.3594	 815.283	    5
  25.3598	 815.303	    5
  25.3601	 815.323	    5
  25.3605	 815.342	    5
  25.3609	 815.362	    5
  25.3612	 815.381	    5
  25.3616	 815.401	    5
  25.3620	 815.420	    5
  25.3624	 815.440	    4
  25.3627	 815.459	    5
  25.3631	 815.479	    5
  25.3635	 815.499	    5
  25.3638	 815.518	    5
  25.3642	 815.538	    5
  25.3646	 815.557	    5
  25.3649	 815.577	    5
  25.3653	 815.596	    5
  25.3657	 815.616	    5
  25.3661	 815.636	    5
  25.3664	 815.655	    5
  25.3668	 815.675	    5
  25.3672	 815.694	    5
  25.3675	 815.714	    5
  25.3679	 815.733	    5
  25.3683	 815.753	    4
  25.3686	 815.773	    5
  25.3690	 815.792	    5
  25.3694	 815.812	    5
  25.3697	 815.831	    5
  25.3701	 815.851	    5
  25.3705	 815.870	    4
  25.3709	 815.890	    5
  25.3712	 815.909	    5
  25.3716	 815.929	    5
  25.3720	 815.949	    4
  25.3723	 815.968	    5
  25.3727	 815.988	    5
  25.3731	 816.007	    5
  25.3734	 816.027	    5
  25.3738	 816.046	    5
  25.3742	 816.066	    4
  25.3746	 816.086	    5
  25.3749	 816.105	    4
  25.3753	 816.125	    5
  25.3757	 816.144	    4
  25.3760	 816.164	    5
  25.3764	 816.183	    4
  25.3768	 816.203	    5
  25.3771	 816.223	    4
  25.3775	 816.242	    5
  25.3779	 816.262	    4
  25.3783	 816.281	    5
  25.3786	 816.301	    5
  25.3790	 816.320	    5
  25.3794	 816.340	    4
  25.3797	 816.360	    5
  25.3801	 816.379	    4
  25.3805	 816.399	    5
  25.3808	 816.418	    4
  25.3812	 816.438	    5
  25.3816	 816.457	    5
  25.3820	 816.477	    5
  25.3823	 816.496	    4
  25.3827	 816.516	    5
  25.3831	 816.536	    4
  25.3834	 816.555	    5
  25.3838	 816.575	    4
  25.3842	 816.594	    5
  25.3845	 816.614	    5
  25.3849	 816.633	    5
  25.3853	 816.653	    4
  25.3857	 816.673	    5
  25.3860	 816.692	    4
  25.3864	 816.712	    5
  25.3868	 816.731	    4
  25.3871	 816.751	    5
  25.3875	 816.770	    4
  25.3879	 816.790	    5
  25.3882	 816.810	    4
  25.3886	 816.829	    5
  25.3890	 816.849	    4
  25.3894	 816.868	    5
  25.3897	 816.888	    4
  25.3901	 816.907	    5
  25.3905	 816.927	    4
  25.3908	 816.946	    5
  25.3912	 816.966	    4
  25.3916	 816.986	    5
  25.3919	 817.005	    4
  25.3923	 817.025	    5
  25.3927	 817.044	    5
  25.3930	 817.064	    5
  25.3934	 817.083	    5
  25.3938	 817.103	    5
  25.3942	 817.123	    5
  25.3945	 817.142	    5
  25.3949	 817.162	    5
  25.3953	 817.181	    5
  25.3956	 817.201	    5
  25.3960	 817.220	    5
  25.3964	 817.240	    5
  25.3967	 817.260	    5
  25.3971	 817.279	    5
  25.3975	 817.299	    5
  25.3979	 817.318	    5
  25.3982	 817.338	    5
  25.3986	 817.357	    5
  25.3990	 817.377	    5
  25.3993	 817.397	    5
  25.3997	 817.416	    5
  25.4001	 817.436	    5
  25.4004	 817.455	    5
  25.4008	 817.475	    5
  25.4012	 817.494	    5
  25.4016	 817.514	    4
  25.4019	 817.533	    5
  25.4023	 817.553	    5
  25.4027	 817.573	    5
  25.4030	 817.592	    5
  25.4034	 817.612	    5
  25.4038	 817.631	    4
  25.4041	 817.651	    5
  25.4045	 817.670	    4
  25.4049	 817.690	    5
  25.4053	 817.710	    4
  25.4056	 817.729	    5
  25.4060	 817.749	    4
  25.4064	 817.768	    5
  25.4067	 817.788	    4
  25.4071	 817.807	    5
  25.4075	 817.827	    5
  25.4078	 817.847	    5
  25.4082	 817.866	    5
  25.4086	 817.886	    5
  25.4090	 817.905	    4
  25.4093	 817.925	    5
  25.4097	 817.944	    4
  25.4101	 817.964	    5
  25.4104	 817.983	    4
  25.4108	 818.003	    5
  25.4112	 818.023	    4
  25.4115	 818.042	    5
  25.4119	 818.062	    4
  25.4123	 818.081	    5
  25.4127	 818.101	    4
  25.4130	 818.120	    5
  25.4134	 818.140	    5
  25.4138	 818.160	    5
  25.4141	 818.179	    5
  25.4145	 818.199	    5
  25.4149	 818.218	    5
  25.4152	 818.238	    5
  25.4156	 818.257	    5
  25.4160	 818.277	    5
  25.4163	 818.297	    5
  25.4167	 818.316	    5
  25.4171	 818.336	    5
  25.4175	 818.355	    5
  25.4178	 818.375	    4
  25.4182	 818.394	    5
  25.4186	 818.414	    4
  25.4189	 818.434	    5
  25.4193	 818.453	    4
  25.4197	 818.473	    5
  25.4200	 818.492	    4
  25.4204	 818.512	    5
  25.4208	 818.531	    4
  25.4212	 818.551	    5
  25.4215	 818.570	    4
  25.4219	 818.590	    5
  25.4223	 818.610	    4
  25.4226	 818.629	    5
  25.4230	 818.649	    4
  25.4234	 818.668	    5
  25.4237	 818.688	    4
  25.4241	 818.707	    5
  25.4245	 818.727	    4
  25.4249	 818.747	    5
  25.4252	 818.766	    4
  25.4256	 818.786	    5
  25.4260	 818.805	    4
  25.4263	 818.825	    5
  25.4267	 818.844	    4
  25.4271	 818.864	    5
  25.4274	 818.884	    4
  25.4278	 818.903	    5
  25.4282	 818.923	    4
  25.4286	 818.942	    5
  25.4289	 818.962	    4
  25.4293	 818.981	    5
  25.4297	 819.001	    4
  25.4300	 819.020	    5
  25.4304	 819.040	    4
  25.4308	 819.060	    5
  25.4311	 819.079	    4
  25.4315	 819.099	    5
  25.4319	 819.118	    4
  25.4323	 819.138	    5
  25.4326	 819.157	    4
  25.4330	 819.177	    5
  25.4334	 819.197	    4
  25.4337	 819.216	    5
  25.4341	 819.236	    4
  25.4345	 819.255	    5
  25.4348	 819.275	    4
  25.4352	 819.294	    5
  25.4356	 819.314	    4
  25.4360	 819.334	    5
  25.4363	 819.353	    4
  25.4367	 819.373	    5
  25.4371	 819.392	    4
  25.4374	 819.412	    5
  25.4378	 819.431	    4
  25.4382	 819.451	    5
  25.4385	 819.470	    4
  25.4389	 819.490	    5
  25.4393	 819.510	    4
  25.4396	 819.529	    5
  25.4400	 819.549	    5
  25.4404	 819.568	    5
  25.4408	 819.588	    4
  25.4411	 819.607	    5
  25.4415	 819.627	    4
  25.4419	 819.647	    5
  25.4422	 819.666	    4
  25.4426	 819.686	    5
  25.4430	 819.705	    4
  25.4433	 819.725	    5
  25.4437	 819.744	    4
  25.4441	 819.764	    5
  25.4445	 819.784	    4
  25.4448	 819.803	    5
  25.4452	 819.823	    4
  25.4456	 819.842	    5
  25.4459	 819.862	    5
  25.4463	 819.881	    5
  25.4467	 819.901	    4
  25.4470	 819.921	    5
  25.4474	 819.940	    4
  25.4478	 819.960	    5
  25.4482	 819.979	    4
  25.4485	 819.999	    5
  25.4489	 820.018	    5
  25.4493	 820.038	    5
  25.4496	 820.057	    4
  25.4500	 820.077	    5
  25.4504	 820.097	    5
  25.4507	 820.116	    5
  25.4511	 820.136	    4
  25.4515	 820.155	    5
  25.4519	 820.175	    4
  25.4522	 820.194	    5
  25.4526	 820.214	    4
  25.4530	 820.234	    5
  25.4533	 820.253	    4
  25.4537	 820.273	    5
  25.4541	 820.292	    4
  25.4544	 820.312	    5
  25.4548	 820.331	    4
  25.4552	 820.351	    5
  25.4556	 820.371	    4
  25.4559	 820.390	    5
  25.4563	 820.410	    5
  25.4567	 820.429	    5
  25.4570	 820.449	    4
  25.4574	 820.468	    5
  25.4578	 820.488	    5
  25.4581	 820.507	    5
  25.4585	 820.527	    5
  25.4589	 820.547	    5
  25.4593	 820.566	    5
  25.4596	 820.586	    5
  25.4600	 820.605	    5
  25.4604	 820.625	    5
  25.4607	 820.644	    5
  25.4611	 820.664	    5
  25.4615	 820.684	    4
  25.4618	 820.703	    5
  25.4622	 820.723	    4
  25.4626	 820.742	    5
  25.4629	 820.762	    4
  25.4633	 820.781	    5
  25.4637	 820.801	    4
  25.4641	 820.821	    5
  25.4644	 820.840	    4
  25.4648	 820.860	    5
  25.4652	 820.879	    4
  25.4655	 820.899	    5
  25.4659	 820.918	    5
  25.4663	 820.938	    5
  25.4666	 820.958	    5
  25.4670	 820.977	    5
  25.4674	 820.997	    4
  25.4678	 821.016	    5
  25.4681	 821.036	    5
  25.4685	 821.055	    5
  25.4689	 821.075	    5
  25.4692	 821.094	    5
  25.4696	 821.114	    5
  25.4700	 821.134	    5
  25.4703	 821.153	    4
  25.4707	 821.173	    5
  25.4711	 821.192	    4
  25.4715	 821.212	    5
  25.4718	 821.231	    4
  25.4722	 821.251	    5
  25.4726	 821.271	    4
  25.4729	 821.290	    5
  25.4733	 821.310	    4
  25.4737	 821.329	    5
  25.4740	 821.349	    4
  25.4744	 821.368	    5
  25.4748	 821.388	    4
  25.4752	 821.408	    5
  25.4755	 821.427	    4
  25.4759	 821.447	    5
  25.4763	 821.466	    4
  25.4766	 821.486	    5
  25.4770	 821.505	    4
  25.4774	 821.525	    5
  25.4777	 821.544	    4
  25.4781	 821.564	    5
  25.4785	 821.584	    4
  25.4789	 821.603	    5
  25.4792	 821.623	    4
  25.4796	 821.642	    5
  25.4800	 821.662	    4
  25.4803	 821.681	    5
  25.4807	 821.701	    4
  25.4811	 821.721	    5
  25.4814	 821.740	    4
  25.4818	 821.760	    5
  25.4822	 821.779	    5
  25.4826	 821.799	    5
  25.4829	 821.818	    4
  25.4833	 821.838	    5
  25.4837	 821.858	    4
  25.4840	 821.877	    5
  25.4844	 821.897	    4
  25.4848	 821.916	    5
  25.4851	 821.936	    4
  25.4855	 821.955	    5
  25.4859	 821.975	    4
  25.4862	 821.995	    5
  25.4866	 822.014	    4
  25.4870	 822.034	    5
  25.4874	 822.053	    4
  25.4877	 822.073	    5
  25.4881	 822.092	    4
  25.4885	 822.112	    5
  25.4888	 822.131	    4
  25.4892	 822.151	    5
  25.4896	 822.171	    4
  25.4899	 822.190	    5
  25.4903	 822.210	    4
  25.4907	 822.229	    5
  25.4911	 822.249	    4
  25.4914	 822.268	    5
  25.4918	 822.288	    4
  25.4922	 822.308	    5
  25.4925	 822.327	    4
  25.4929	 822.347	    5
  25.4933	 822.366	    4
  25.4936	 822.386	    5
  25.4940	 822.405	    4
  25.4944	 822.425	    5
  25.4948	 822.445	    4
  25.4951	 822.464	    5
  25.4955	 822.484	    4
  25.4959	 822.503	    5
  25.4962	 822.523	    5
  25.4966	 822.542	    5
  25.4970	 822.562	    4
  25.4973	 822.581	    5
  25.4977	 822.601	    4
  25.4981	 822.621	    5
  25.4985	 822.640	    4
  25.4988	 822.660	    5
  25.4992	 822.679	    4
  25.4996	 822.699	    5
  25.4999	 822.718	    4
  25.5003	 822.738	    5
  25.5007	 822.758	    4
  25.5010	 822.777	    5
  25.5014	 822.797	    4
  25.5018	 822.816	    5
  25.5022	 822.836	    4
  25.5025	 822.855	    5
  25.5029	 822.875	    4
  25.5033	 822.895	    5
  25.5036	 822.914	    4
  25.5040	 822.934	    5
  25.5044	 822.953	    4
  25.5047	 822.973	    5
  25.5051	 822.992	    4
  25.5055	 823.012	    5
  25.5059	 823.032	    4
  25.5062	 823.051	    5
  25.5066	 823.071	    4
  25.5070	 823.090	    5
  25.5073	 823.110	    4
  25.5077	 823.129	    5
  25.5081	 823.149	    4
  25.5084	 823.168	    5
  25.5088	 823.188	    4
  25.5092	 823.208	    5
  25.5095	 823.227	    4
  25.5099	 823.247	    5
  25.5103	 823.266	    4
  25.5107	 823.286	    5
  25.5110	 823.305	    4
  25.5114	 823.325	    5
  25.5118	 823.345	    4
  25.5121	 823.364	    5
  25.5125	 823.384	    4
  25.5129	 823.403	    5
  25.5132	 823.423	    4
  25.5136	 823.442	    5
  25.5140	 823.462	    4
  25.5144	 823.482	    5
  25.5147	 823.501	    4
  25.5151	 823.521	    5
  25.5155	 823.540	    4
  25.5158	 823.560	    5
  25.5162	 823.579	    4
  25.5166	 823.599	    5
  25.5169	 823.618	    4
  25.5173	 823.638	    5
  25.5177	 823.658	    4
  25.5181	 823.677	    5
  25.5184	 823.697	    4
  25.5188	 823.716	    5
  25.5192	 823.736	    4
  25.5195	 823.755	    5
  25.5199	 823.775	    4
  25.5203	 823.795	    5
  25.5206	 823.814	    4
  25.5210	 823.834	    5
  25.5214	 823.853	    4
  25.5218	 823.873	    5
  25.5221	 823.892	    4
  25.5225	 823.912	    5
  25.5229	 823.932	    4
  25.5232	 823.951	    5
  25.5236	 823.971	    4
  25.5240	 823.990	    5
  25.5243	 824.010	    4
  25.5247	 824.029	    5
  25.5251	 824.049	    4
  25.5255	 824.069	    5
  25.5258	 824.088	    4
  25.5262	 824.108	    5
  25.5266	 824.127	    4
  25.5269	 824.147	    5
  25.5273	 824.166	    4
  25.5277	 824.186	    5
  25.5280	 824.205	    4
  25.5284	 824.225	    5
  25.5288	 824.245	    4
  25.5292	 824.264	    5
  25.5295	 824.284	    4
  25.5299	 824.303	    5
  25.5303	 824.323	    4
  25.5306	 824.342	    5
  25.5310	 824.362	    4
  25.5314	 824.382	    5
  25.5317	 824.401	    4
  25.5321	 824.421	    5
  25.5325	 824.440	    4
  25.5328	 824.460	    5
  25.5332	 824.479	    4
  25.5336	 824.499	    5
  25.5340	 824.519	    4
  25.5343	 824.538	    5
  25.5347	 824.558	    4
  25.5351	 824.577	    5
  25.5354	 824.597	    4
  25.5358	 824.616	    5
  25.5362	 824.636	    4
  25.5365	 824.655	    5
  25.5369	 824.675	    4
  25.5373	 824.695	    5
  25.5377	 824.714	    4
  25.5380	 824.734	    5
  25.5384	 824.753	    4
  25.5388	 824.773	    5
  25.5391	 824.792	    4
  25.5395	 824.812	    5
  25.5399	 824.832	    4
  25.5402	 824.851	    5
  25.5406	 824.871	    4
  25.5410	 824.890	    5
  25.5414	 824.910	    4
  25.5417	 824.929	    5
  25.5421	 824.949	    4
  25.5425	 824.969	    5
  25.5428	 824.988	    4
  25.5432	 825.008	    5
  25.5436	 825.027	    4
  25.5439	 825.047	    5
  25.5443	 825.066	    4
  25.5447	 825.086	    5
  25.5451	 825.105	    4
  25.5454	 825.125	    5
  25.5458	 825.145	    4
  25.5462	 825.164	    5
  25.5465	 825.184	    4
  25.5469	 825.203	    5
  25.5473	 825.223	    4
  25.5476	 825.242	    5
  25.5480	 825.262	    4
  25.5484	 825.282	    5
  25.5488	 825.301	    4
  25.5491	 825.321	    5
  25.5495	 825.340	    4
  25.5499	 825.360	    5
  25.5502	 825.379	    4
  25.5506	 825.399	    5
  25.5510	 825.419	    4
  25.5513	 825.438	    5
  25.5517	 825.458	    4
  25.5521	 825.477	    5
  25.5525	 825.497	    4
  25.5528	 825.516	    5
  25.5532	 825.536	    4
  25.5536	 825.556	    5
  25.5539	 825.575	    4
  25.5543	 825.595	    5
  25.5547	 825.614	    4
  25.5550	 825.634	    5
  25.5554	 825.653	    4
  25.5558	 825.673	    5
  25.5561	 825.692	    4
  25.5565	 825.712	    5
  25.5569	 825.732	    4
  25.5573	 825.751	    5
  25.5576	 825.771	    5
  25.5580	 825.790	    5
  25.5584	 825.810	    4
  25.5587	 825.829	    5
  25.5591	 825.849	    4
  25.5595	 825.869	    5
  25.5598	 825.888	    4
  25.5602	 825.908	    5
  25.5606	 825.927	    4
  25.5610	 825.947	    5
  25.5613	 825.966	    4
  25.5617	 825.986	    5
  25.5621	 826.006	    4
  25.5624	 826.025	    5
  25.5628	 826.045	    4
  25.5632	 826.064	    5
  25.5635	 826.084	    4
  25.5639	 826.103	    5
  25.5643	 826.123	    4
  25.5647	 826.142	    5
  25.5650	 826.162	    4
  25.5654	 826.182	    5
  25.5658	 826.201	    4
  25.5661	 826.221	    5
  25.5665	 826.240	    4
  25.5669	 826.260	    5
  25.5672	 826.279	    4
  25.5676	 826.299	    5
  25.5680	 826.319	    4
  25.5684	 826.338	    5
  25.5687	 826.358	    4
  25.5691	 826.377	    5
  25.5695	 826.397	    4
  25.5698	 826.416	    5
  25.5702	 826.436	    4
  25.5706	 826.456	    5
  25.5709	 826.475	    4
  25.5713	 826.495	    5
  25.5717	 826.514	    4
  25.5721	 826.534	    5
  25.5724	 826.553	    4
  25.5728	 826.573	    5
  25.5732	 826.593	    4
  25.5735	 826.612	    5
  25.5739	 826.632	    4
  25.5743	 826.651	    5
  25.5746	 826.671	    4
  25.5750	 826.690	    5
  25.5754	 826.710	    4
  25.5757	 826.729	    5
  25.5761	 826.749	    4
  25.5765	 826.769	    5
  25.5769	 826.788	    4
  25.5772	 826.808	    5
  25.5776	 826.827	    4
  25.5780	 826.847	    5
  25.5783	 826.866	    4
  25.5787	 826.886	    5
  25.5791	 826.906	    4
  25.5794	 826.925	    5
  25.5798	 826.945	    4
  25.5802	 826.964	    5
  25.5806	 826.984	    4
  25.5809	 827.003	    5
  25.5813	 827.023	    4
  25.5817	 827.043	    5
  25.5820	 827.062	    4
  25.5824	 827.082	    5
  25.5828	 827.101	    4
  25.5831	 827.121	    5
  25.5835	 827.140	    4
  25.5839	 827.160	    5
  25.5843	 827.179	    4
  25.5846	 827.199	    5
  25.5850	 827.219	    4
  25.5854	 827.238	    5
  25.5857	 827.258	    4
  25.5861	 827.277	    5
  25.5865	 827.297	    4
  25.5868	 827.316	    5
  25.5872	 827.336	    4
  25.5876	 827.356	    5
  25.5880	 827.375	    4
  25.5883	 827.395	    5
  25.5887	 827.414	    4
  25.5891	 827.434	    5
  25.5894	 827.453	    4
  25.5898	 827.473	    5
  25.5902	 827.493	    4
  25.5905	 827.512	    5
  25.5909	 827.532	    4
  25.5913	 827.551	    5
  25.5917	 827.571	    4
  25.5920	 827.590	    5
  25.5924	 827.610	    4
  25.5928	 827.630	    5
  25.5931	 827.649	    4
  25.5935	 827.669	    5
  25.5939	 827.688	    4
  25.5942	 827.708	    5
  25.5946	 827.727	    4
  25.5950	 827.747	    5
  25.5954	 827.766	    4
  25.5957	 827.786	    5
  25.5961	 827.806	    4
  25.5965	 827.825	    5
  25.5968	 827.845	    4
  25.5972	 827.864	    5
  25.5976	 827.884	    4
  25.5979	 827.903	    5
  25.5983	 827.923	    4
  25.5987	 827.943	    5
  25.5990	 827.962	    4
  25.5994	 827.982	    5
  25.5998	 828.001	    5
  25.6002	 828.021	    5
  25.6005	 828.040	    4
  25.6009	 828.060	    5
  25.6013	 828.080	    4
  25.6016	 828.099	    5
  25.6020	 828.119	    4
  25.6024	 828.138	    5
  25.6027	 828.158	    4
  25.6031	 828.177	    5
  25.6035	 828.197	    4
  25.6039	 828.216	    5
  25.6042	 828.236	    4
  25.6046	 828.256	    5
  25.6050	 828.275	    4
  25.6053	 828.295	    5
  25.6057	 828.314	    4
  25.6061	 828.334	    5
  25.6064	 828.353	    4
  25.6068	 828.373	    5
  25.6072	 828.393	    4
  25.6076	 828.412	    5
  25.6079	 828.432	    4
  25.6083	 828.451	    5
  25.6087	 828.471	    5
  25.6090	 828.490	    5
  25.6094	 828.510	    4
  25.6098	 828.530	    5
  25.6101	 828.549	    5
  25.6105	 828.569	    5
  25.6109	 828.588	    5
  25.6113	 828.608	    5
  25.6116	 828.627	    5
  25.6120	 828.647	    5
  25.6124	 828.667	    4
  25.6127	 828.686	    5
  25.6131	 828.706	    5
  25.6135	 828.725	    5
  25.6138	 828.745	    5
  25.6142	 828.764	    5
  25.6146	 828.784	    4
  25.6150	 828.803	    5
  25.6153	 828.823	    4
  25.6157	 828.843	    5
  25.6161	 828.862	    5
  25.6164	 828.882	    5
  25.6168	 828.901	    4
  25.6172	 828.921	    5
  25.6175	 828.940	    4
  25.6179	 828.960	    5
  25.6183	 828.980	    5
  25.6187	 828.999	    5
  25.6190	 829.019	    4
  25.6194	 829.038	    5
  25.6198	 829.058	    4
  25.6201	 829.077	    5
  25.6205	 829.097	    4
  25.6209	 829.117	    5
  25.6212	 829.136	    4
  25.6216	 829.156	    5
  25.6220	 829.175	    4
  25.6223	 829.195	    5
  25.6227	 829.214	    4
  25.6231	 829.234	    5
  25.6235	 829.253	    4
  25.6238	 829.273	    5
  25.6242	 829.293	    4
  25.6246	 829.312	    5
  25.6249	 829.332	    4
  25.6253	 829.351	    5
  25.6257	 829.371	    4
  25.6260	 829.390	    5
  25.6264	 829.410	    4
  25.6268	 829.430	    5
  25.6272	 829.449	    4
  25.6275	 829.469	    5
  25.6279	 829.488	    4
  25.6283	 829.508	    5
  25.6286	 829.527	    4
  25.6290	 829.547	    5
  25.6294	 829.567	    4
  25.6297	 829.586	    5
  25.6301	 829.606	    4
  25.6305	 829.625	    5
  25.6309	 829.645	    4
  25.6312	 829.664	    5
  25.6316	 829.684	    4
  25.6320	 829.703	    5
  25.6323	 829.723	    4
  25.6327	 829.743	    5
  25.6331	 829.762	    4
  25.6334	 829.782	    5
  25.6338	 829.801	    4
  25.6342	 829.821	    5
  25.6346	 829.840	    4
  25.6349	 829.860	    5
  25.6353	 829.880	    4
  25.6357	 829.899	    5
  25.6360	 829.919	    4
  25.6364	 829.938	    5
  25.6368	 829.958	    4
  25.6371	 829.977	    5
  25.6375	 829.997	    4
  25.6379	 830.017	    5
  25.6383	 830.036	    4
  25.6386	 830.056	    5
  25.6390	 830.075	    4
  25.6394	 830.095	    5
  25.6397	 830.114	    4
  25.6401	 830.134	    5
  25.6405	 830.154	    4
  25.6408	 830.173	    5
  25.6412	 830.193	    4
  25.6416	 830.212	    5
  25.6420	 830.232	    4
  25.6423	 830.251	    5
  25.6427	 830.271	    4
  25.6431	 830.290	    5
  25.6434	 830.310	    4
  25.6438	 830.330	    5
  25.6442	 830.349	    4
  25.6445	 830.369	    5
  25.6449	 830.388	    4
  25.6453	 830.408	    5
  25.6456	 830.427	    4
  25.6460	 830.447	    5
  25.6464	 830.467	    4
  25.6468	 830.486	    5
  25.6471	 830.506	    4
  25.6475	 830.525	    5
  25.6479	 830.545	    4
  25.6482	 830.564	    5
  25.6486	 830.584	    4
  25.6490	 830.604	    5
  25.6493	 830.623	    4
  25.6497	 830.643	    5
  25.6501	 830.662	    4
  25.6505	 830.682	    5
  25.6508	 830.701	    4
  25.6512	 830.721	    5
  25.6516	 830.740	    4
  25.6519	 830.760	    5
  25.6523	 830.780	    4
  25.6527	 830.799	    5
  25.6530	 830.819	    4
  25.6534	 830.838	    5
  25.6538	 830.858	    4
  25.6542	 830.877	    5
  25.6545	 830.897	    4
  25.6549	 830.917	    5
  25.6553	 830.936	    4
  25.6556	 830.956	    5
  25.6560	 830.975	    4
  25.6564	 830.995	    5
  25.6567	 831.014	    4
  25.6571	 831.034	    5
  25.6575	 831.054	    4
  25.6579	 831.073	    5
  25.6582	 831.093	    4
  25.6586	 831.112	    5
  25.6590	 831.132	    4
  25.6593	 831.151	    5
  25.6597	 831.171	    4
  25.6601	 831.191	    5
  25.6604	 831.210	    4
  25.6608	 831.230	    5
  25.6612	 831.249	    4
  25.6616	 831.269	    5
  25.6619	 831.288	    4
  25.6623	 831.308	    5
  25.6627	 831.327	    4
  25.6630	 831.347	    5
  25.6634	 831.367	    4
  25.6638	 831.386	    5
  25.6641	 831.406	    4
  25.6645	 831.425	    5
  25.6649	 831.445	    4
  25.6653	 831.464	    5
  25.6656	 831.484	    4
  25.6660	 831.504	    5
  25.6664	 831.523	    4
  25.6667	 831.543	    5
  25.6671	 831.562	    4
  25.6675	 831.582	    5
  25.6678	 831.601	    4
  25.6682	 831.621	    5
  25.6686	 831.641	    4
  25.6689	 831.660	    5
  25.6693	 831.680	    4
  25.6697	 831.699	    5
  25.6701	 831.719	    4
  25.6704	 831.738	    5
  25.6708	 831.758	    4
  25.6712	 831.777	    5
  25.6715	 831.797	    4
  25.6719	 831.817	    5
  25.6723	 831.836	    4
  25.6726	 831.856	    5
  25.6730	 831.875	    4
  25.6734	 831.895	    5
  25.6738	 831.914	    4
  25.6741	 831.934	    5
  25.6745	 831.954	    4
  25.6749	 831.973	    5
  25.6752	 831.993	    4
  25.6756	 832.012	    5
  25.6760	 832.032	    4
  25.6763	 832.051	    5
  25.6767	 832.071	    4
  25.6771	 832.091	    5
  25.6775	 832.110	    4
  25.6778	 832.130	    5
  25.6782	 832.149	    4
  25.6786	 832.169	    5
  25.6789	 832.188	    4
  25.6793	 832.208	    5
  25.6797	 832.228	    5
  25.6800	 832.247	    5
  25.6804	 832.267	    4
  25.6808	 832.286	    5
  25.6812	 832.306	    4
  25.6815	 832.325	    5
  25.6819	 832.345	    4
  25.6823	 832.364	    5
  25.6826	 832.384	    4
  25.6830	 832.404	    5
  25.6834	 832.423	    4
  25.6837	 832.443	    5
  25.6841	 832.462	    4
  25.6845	 832.482	    5
  25.6849	 832.501	    4
  25.6852	 832.521	    5
  25.6856	 832.541	    4
  25.6860	 832.560	    5
  25.6863	 832.580	    4
  25.6867	 832.599	    5
  25.6871	 832.619	    4
  25.6874	 832.638	    5
  25.6878	 832.658	    4
  25.6882	 832.678	    5
  25.6886	 832.697	    4
  25.6889	 832.717	    5
  25.6893	 832.736	    4
  25.6897	 832.756	    5
  25.6900	 832.775	    5
  25.6904	 832.795	    5
  25.6908	 832.814	    4
  25.6911	 832.834	    5
  25.6915	 832.854	    5
  25.6919	 832.873	    5
  25.6922	 832.893	    4
  25.6926	 832.912	    5
  25.6930	 832.932	    4
  25.6934	 832.951	    5
  25.6937	 832.971	    4
  25.6941	 832.991	    5
  25.6945	 833.010	    4
  25.6948	 833.030	    5
  25.6952	 833.049	    4
  25.6956	 833.069	    5
  25.6959	 833.088	    4
  25.6963	 833.108	    5
  25.6967	 833.128	    4
  25.6971	 833.147	    5
  25.6974	 833.167	    4
  25.6978	 833.186	    5
  25.6982	 833.206	    4
  25.6985	 833.225	    5
  25.6989	 833.245	    4
  25.6993	 833.265	    5
  25.6996	 833.284	    4
  25.7000	 833.304	    5
  25.7004	 833.323	    4
  25.7008	 833.343	    5
  25.7011	 833.362	    4
  25.7015	 833.382	    5
  25.7019	 833.401	    4
  25.7022	 833.421	    5
  25.7026	 833.441	    5
  25.7030	 833.460	    5
  25.7033	 833.480	    5
  25.7037	 833.499	    5
  25.7041	 833.519	    4
  25.7045	 833.538	    5
  25.7048	 833.558	    4
  25.7052	 833.578	    5
  25.7056	 833.597	    4
  25.7059	 833.617	    5
  25.7063	 833.636	    4
  25.7067	 833.656	    5
  25.7070	 833.675	    4
  25.7074	 833.695	    5
  25.7078	 833.715	    4
  25.7082	 833.734	    5
  25.7085	 833.754	    4
  25.7089	 833.773	    5
  25.7093	 833.793	    4
  25.7096	 833.812	    5
  25.7100	 833.832	    4
  25.7104	 833.851	    5
  25.7107	 833.871	    4
  25.7111	 833.891	    5
  25.7115	 833.910	    4
  25.7119	 833.930	    5
  25.7122	 833.949	    4
  25.7126	 833.969	    5
  25.7130	 833.988	    4
  25.7133	 834.008	    5
  25.7137	 834.028	    4
  25.7141	 834.047	    5
  25.7144	 834.067	    4
  25.7148	 834.086	    5
  25.7152	 834.106	    4
  25.7155	 834.125	    5
  25.7159	 834.145	    4
  25.7163	 834.165	    5
  25.7167	 834.184	    4
  25.7170	 834.204	    5
  25.7174	 834.223	    4
  25.7178	 834.243	    5
  25.7181	 834.262	    4
  25.7185	 834.282	    5
  25.7189	 834.302	    4
  25.7192	 834.321	    5
  25.7196	 834.341	    4
  25.7200	 834.360	    5
  25.7204	 834.380	    4
  25.7207	 834.399	    5
  25.7211	 834.419	    4
  25.7215	 834.438	    5
  25.7218	 834.458	    4
  25.7222	 834.478	    5
  25.7226	 834.497	    4
  25.7229	 834.517	    5
  25.7233	 834.536	    4
  25.7237	 834.556	    5
  25.7241	 834.575	    4
  25.7244	 834.595	    5
  25.7248	 834.615	    4
  25.7252	 834.634	    5
  25.7255	 834.654	    4
  25.7259	 834.673	    5
  25.7263	 834.693	    4
  25.7266	 834.712	    5
  25.7270	 834.732	    4
  25.7274	 834.752	    5
  25.7278	 834.771	    4
  25.7281	 834.791	    5
  25.7285	 834.810	    4
  25.7289	 834.830	    5
  25.7292	 834.849	    4
  25.7296	 834.869	    5
  25.7300	 834.888	    4
  25.7303	 834.908	    5
  25.7307	 834.928	    4
  25.7311	 834.947	    5
  25.7315	 834.967	    4
  25.7318	 834.986	    5
  25.7322	 835.006	    4
  25.7326	 835.025	    5
  25.7329	 835.045	    4
  25.7333	 835.065	    5
  25.7337	 835.084	    4
  25.7340	 835.104	    5
  25.7344	 835.123	    4
  25.7348	 835.143	    5
  25.7352	 835.162	    4
  25.7355	 835.182	    5
  25.7359	 835.202	    4
  25.7363	 835.221	    5
  25.7366	 835.241	    4
  25.7370	 835.260	    5
  25.7374	 835.280	    4
  25.7377	 835.299	    5
  25.7381	 835.319	    4
  25.7385	 835.338	    5
  25.7388	 835.358	    4
  25.7392	 835.378	    5
  25.7396	 835.397	    4
  25.7400	 835.417	    5
  25.7403	 835.436	    5
  25.7407	 835.456	    5
  25.7411	 835.475	    5
  25.7414	 835.495	    5
  25.7418	 835.515	    5
  25.7422	 835.534	    5
  25.7425	 835.554	    4
  25.7429	 835.573	    5
  25.7433	 835.593	    4
  25.7437	 835.612	    5
  25.7440	 835.632	    4
  25.7444	 835.652	    5
  25.7448	 835.671	    5
  25.7451	 835.691	    5
  25.7455	 835.710	    4
  25.7459	 835.730	    5
  25.7462	 835.749	    5
  25.7466	 835.769	    5
  25.7470	 835.789	    4
  25.7474	 835.808	    5
  25.7477	 835.828	    4
  25.7481	 835.847	    5
  25.7485	 835.867	    4
  25.7488	 835.886	    5
  25.7492	 835.906	    4
  25.7496	 835.925	    5
  25.7499	 835.945	    4
  25.7503	 835.965	    5
  25.7507	 835.984	    4
  25.7511	 836.004	    5
  25.7514	 836.023	    4
  25.7518	 836.043	    5
  25.7522	 836.062	    4
  25.7525	 836.082	    5
  25.7529	 836.102	    4
  25.7533	 836.121	    5
  25.7536	 836.141	    5
  25.7540	 836.160	    5
  25.7544	 836.180	    4
  25.7548	 836.199	    5
  25.7551	 836.219	    4
  25.7555	 836.239	    5
  25.7559	 836.258	    4
  25.7562	 836.278	    5
  25.7566	 836.297	    4
  25.7570	 836.317	    5
  25.7573	 836.336	    5
  25.7577	 836.356	    5
  25.7581	 836.375	    5
  25.7585	 836.395	    5
  25.7588	 836.415	    5
  25.7592	 836.434	    5
  25.7596	 836.454	    5
  25.7599	 836.473	    5
  25.7603	 836.493	    4
  25.7607	 836.512	    5
  25.7610	 836.532	    4
  25.7614	 836.552	    5
  25.7618	 836.571	    4
  25.7621	 836.591	    5
  25.7625	 836.610	    4
  25.7629	 836.630	    5
  25.7633	 836.649	    5
  25.7636	 836.669	    5
  25.7640	 836.689	    4
  25.7644	 836.708	    5
  25.7647	 836.728	    4
  25.7651	 836.747	    5
  25.7655	 836.767	    4
  25.7658	 836.786	    5
  25.7662	 836.806	    4
  25.7666	 836.826	    5
  25.7670	 836.845	    5
  25.7673	 836.865	    5
  25.7677	 836.884	    4
  25.7681	 836.904	    5
  25.7684	 836.923	    4
  25.7688	 836.943	    5
  25.7692	 836.962	    4
  25.7695	 836.982	    5
  25.7699	 837.002	    4
  25.7703	 837.021	    5
  25.7707	 837.041	    5
  25.7710	 837.060	    5
  25.7714	 837.080	    5
  25.7718	 837.099	    5
  25.7721	 837.119	    5
  25.7725	 837.139	    5
  25.7729	 837.158	    5
  25.7732	 837.178	    5
  25.7736	 837.197	    5
  25.7740	 837.217	    5
  25.7744	 837.236	    4
  25.7747	 837.256	    5
  25.7751	 837.276	    4
  25.7755	 837.295	    5
  25.7758	 837.315	    4
  25.7762	 837.334	    5
  25.7766	 837.354	    4
  25.7769	 837.373	    5
  25.7773	 837.393	    5
  25.7777	 837.412	    5
  25.7781	 837.432	    4
  25.7784	 837.452	    5
  25.7788	 837.471	    4
  25.7792	 837.491	    5
  25.7795	 837.510	    5
  25.7799	 837.530	    5
  25.7803	 837.549	    5
  25.7806	 837.569	    5
  25.7810	 837.589	    5
  25.7814	 837.608	    5
  25.7818	 837.628	    4
  25.7821	 837.647	    5
  25.7825	 837.667	    4
  25.7829	 837.686	    5
  25.7832	 837.706	    4
  25.7836	 837.726	    5
  25.7840	 837.745	    4
  25.7843	 837.765	    5
  25.7847	 837.784	    4
  25.7851	 837.804	    5
  25.7854	 837.823	    4
  25.7858	 837.843	    5
  25.7862	 837.863	    4
  25.7866	 837.882	    5
  25.7869	 837.902	    4
  25.7873	 837.921	    5
  25.7877	 837.941	    5
  25.7880	 837.960	    5
  25.7884	 837.980	    4
  25.7888	 837.999	    5
  25.7891	 838.019	    4
  25.7895	 838.039	    5
  25.7899	 838.058	    4
  25.7903	 838.078	    5
  25.7906	 838.097	    4
  25.7910	 838.117	    5
  25.7914	 838.136	    4
  25.7917	 838.156	    5
  25.7921	 838.176	    4
  25.7925	 838.195	    5
  25.7928	 838.215	    4
  25.7932	 838.234	    5
  25.7936	 838.254	    4
  25.7940	 838.273	    5
  25.7943	 838.293	    5
  25.7947	 838.313	    5
  25.7951	 838.332	    4
  25.7954	 838.352	    5
  25.7958	 838.371	    5
  25.7962	 838.391	    5
  25.7965	 838.410	    5
  25.7969	 838.430	    5
  25.7973	 838.449	    5
  25.7977	 838.469	    5
  25.7980	 838.489	    4
  25.7984	 838.508	    5
  25.7988	 838.528	    4
  25.7991	 838.547	    5
  25.7995	 838.567	    4
  25.7999	 838.586	    5
  25.8002	 838.606	    4
  25.8006	 838.626	    5
  25.8010	 838.645	    4
  25.8014	 838.665	    5
  25.8017	 838.684	    4
  25.8021	 838.704	    5
  25.8025	 838.723	    4
  25.8028	 838.743	    5
  25.8032	 838.763	    4
  25.8036	 838.782	    5
  25.8039	 838.802	    4
  25.8043	 838.821	    5
  25.8047	 838.841	    4
  25.8051	 838.860	    5
  25.8054	 838.880	    4
  25.8058	 838.900	    5
  25.8062	 838.919	    4
  25.8065	 838.939	    5
  25.8069	 838.958	    5
  25.8073	 838.978	    5
  25.8076	 838.997	    4
  25.8080	 839.017	    5
  25.8084	 839.036	    5
  25.8087	 839.056	    5
  25.8091	 839.076	    5
  25.8095	 839.095	    5
  25.8099	 839.115	    5
  25.8102	 839.134	    5
  25.8106	 839.154	    5
  25.8110	 839.173	    5
  25.8113	 839.193	    4
  25.8117	 839.213	    5
  25.8121	 839.232	    5
  25.8124	 839.252	    5
  25.8128	 839.271	    5
  25.8132	 839.291	    5
  25.8136	 839.310	    5
  25.8139	 839.330	    5
  25.8143	 839.350	    5
  25.8147	 839.369	    5
  25.8150	 839.389	    5
  25.8154	 839.408	    5
  25.8158	 839.428	    5
  25.8161	 839.447	    5
  25.8165	 839.467	    4
  25.8169	 839.486	    5
  25.8173	 839.506	    4
  25.8176	 839.526	    5
  25.8180	 839.545	    5
  25.8184	 839.565	    5
  25.8187	 839.584	    5
  25.8191	 839.604	    5
  25.8195	 839.623	    4
  25.8198	 839.643	    5
  25.8202	 839.663	    4
  25.8206	 839.682	    5
  25.8210	 839.702	    5
  25.8213	 839.721	    5
  25.8217	 839.741	    5
  25.8221	 839.760	    5
  25.8224	 839.780	    5
  25.8228	 839.800	    5
  25.8232	 839.819	    5
  25.8235	 839.839	    5
  25.8239	 839.858	    5
  25.8243	 839.878	    5
  25.8247	 839.897	    5
  25.8250	 839.917	    5
  25.8254	 839.936	    5
  25.8258	 839.956	    5
  25.8261	 839.976	    5
  25.8265	 839.995	    5
  25.8269	 840.015	    5
  25.8272	 840.034	    5
  25.8276	 840.054	    5
  25.8280	 840.073	    5
  25.8283	 840.093	    4
  25.8287	 840.113	    5
  25.8291	 840.132	    4
  25.8295	 840.152	    5
  25.8298	 840.171	    4
  25.8302	 840.191	    5
  25.8306	 840.210	    4
  25.8309	 840.230	    5
  25.8313	 840.250	    4
  25.8317	 840.269	    5
  25.8320	 840.289	    4
  25.8324	 840.308	    5
  25.8328	 840.328	    5
  25.8332	 840.347	    5
  25.8335	 840.367	    4
  25.8339	 840.387	    5
  25.8343	 840.406	    4
  25.8346	 840.426	    5
  25.8350	 840.445	    4
  25.8354	 840.465	    5
  25.8357	 840.484	    4
  25.8361	 840.504	    5
  25.8365	 840.523	    5
  25.8369	 840.543	    5
  25.8372	 840.563	    4
  25.8376	 840.582	    5
  25.8380	 840.602	    4
  25.8383	 840.621	    5
  25.8387	 840.641	    4
  25.8391	 840.660	    5
  25.8394	 840.680	    5
  25.8398	 840.700	    5
  25.8402	 840.719	    5
  25.8406	 840.739	    5
  25.8409	 840.758	    5
  25.8413	 840.778	    5
  25.8417	 840.797	    4
  25.8420	 840.817	    5
  25.8424	 840.837	    5
  25.8428	 840.856	    5
  25.8431	 840.876	    5
  25.8435	 840.895	    5
  25.8439	 840.915	    4
  25.8443	 840.934	    5
  25.8446	 840.954	    4
  25.8450	 840.973	    5
  25.8454	 840.993	    5
  25.8457	 841.013	    5
  25.8461	 841.032	    5
  25.8465	 841.052	    5
  25.8468	 841.071	    5
  25.8472	 841.091	    5
  25.8476	 841.110	    5
  25.8480	 841.130	    5
  25.8483	 841.150	    5
  25.8487	 841.169	    5
  25.8491	 841.189	    5
  25.8494	 841.208	    5
  25.8498	 841.228	    4
  25.8502	 841.247	    5
  25.8505	 841.267	    5
  25.8509	 841.287	    5
  25.8513	 841.306	    5
  25.8516	 841.326	    5
  25.8520	 841.345	    5
  25.8524	 841.365	    5
  25.8528	 841.384	    4
  25.8531	 841.404	    5
  25.8535	 841.424	    5
  25.8539	 841.443	    5
  25.8542	 841.463	    5
  25.8546	 841.482	    5
  25.8550	 841.502	    4
  25.8553	 841.521	    5
  25.8557	 841.541	    4
  25.8561	 841.560	    5
  25.8565	 841.580	    4
  25.8568	 841.600	    5
  25.8572	 841.619	    4
  25.8576	 841.639	    5
  25.8579	 841.658	    5
  25.8583	 841.678	    5
  25.8587	 841.697	    4
  25.8590	 841.717	    5
  25.8594	 841.737	    5
  25.8598	 841.756	    5
  25.8602	 841.776	    5
  25.8605	 841.795	    5
  25.8609	 841.815	    5
  25.8613	 841.834	    5
  25.8616	 841.854	    4
  25.8620	 841.874	    5
  25.8624	 841.893	    4
  25.8627	 841.913	    5
  25.8631	 841.932	    4
  25.8635	 841.952	    5
  25.8639	 841.971	    4
  25.8642	 841.991	    5
  25.8646	 842.010	    4
  25.8650	 842.030	    5
  25.8653	 842.050	    4
  25.8657	 842.069	    5
  25.8661	 842.089	    4
  25.8664	 842.108	    5
  25.8668	 842.128	    4
  25.8672	 842.147	    5
  25.8676	 842.167	    4
  25.8679	 842.187	    5
  25.8683	 842.206	    4
  25.8687	 842.226	    5
  25.8690	 842.245	    5
  25.8694	 842.265	    5
  25.8698	 842.284	    4
  25.8701	 842.304	    5
  25.8705	 842.324	    5
  25.8709	 842.343	    5
  25.8713	 842.363	    4
  25.8716	 842.382	    5
  25.8720	 842.402	    4
  25.8724	 842.421	    5
  25.8727	 842.441	    4
  25.8731	 842.461	    5
  25.8735	 842.480	    5
  25.8738	 842.500	    5
  25.8742	 842.519	    5
  25.8746	 842.539	    5
  25.8749	 842.558	    5
  25.8753	 842.578	    5
  25.8757	 842.597	    5
  25.8761	 842.617	    5
  25.8764	 842.637	    5
  25.8768	 842.656	    5
  25.8772	 842.676	    5
  25.8775	 842.695	    5
  25.8779	 842.715	    5
  25.8783	 842.734	    5
  25.8786	 842.754	    5
  25.8790	 842.774	    5
  25.8794	 842.793	    5
  25.8798	 842.813	    5
  25.8801	 842.832	    5
  25.8805	 842.852	    5
  25.8809	 842.871	    5
  25.8812	 842.891	    5
  25.8816	 842.911	    5
  25.8820	 842.930	    5
  25.8823	 842.950	    5
  25.8827	 842.969	    5
  25.8831	 842.989	    5
  25.8835	 843.008	    5
  25.8838	 843.028	    5
  25.8842	 843.047	    5
  25.8846	 843.067	    5
  25.8849	 843.087	    5
  25.8853	 843.106	    5
  25.8857	 843.126	    5
  25.8860	 843.145	    5
  25.8864	 843.165	    5
  25.8868	 843.184	    5
  25.8872	 843.204	    5
  25.8875	 843.224	    5
  25.8879	 843.243	    5
  25.8883	 843.263	    5
  25.8886	 843.282	    5
  25.8890	 843.302	    5
  25.8894	 843.321	    5
  25.8897	 843.341	    5
  25.8901	 843.361	    5
  25.8905	 843.380	    4
  25.8909	 843.400	    5
  25.8912	 843.419	    4
  25.8916	 843.439	    5
  25.8920	 843.458	    5
  25.8923	 843.478	    5
  25.8927	 843.498	    5
  25.8931	 843.517	    5
  25.8934	 843.537	    5
  25.8938	 843.556	    5
  25.8942	 843.576	    5
  25.8946	 843.595	    5
  25.8949	 843.615	    5
  25.8953	 843.634	    5
  25.8957	 843.654	    5
  25.8960	 843.674	    5
  25.8964	 843.693	    5
  25.8968	 843.713	    5
  25.8971	 843.732	    5
  25.8975	 843.752	    5
  25.8979	 843.771	    4
  25.8982	 843.791	    5
  25.8986	 843.811	    5
  25.8990	 843.830	    5
  25.8994	 843.850	    5
  25.8997	 843.869	    5
  25.9001	 843.889	    4
  25.9005	 843.908	    5
  25.9008	 843.928	    5
  25.9012	 843.948	    5
  25.9016	 843.967	    5
  25.9019	 843.987	    5
  25.9023	 844.006	    5
  25.9027	 844.026	    5
  25.9031	 844.045	    4
  25.9034	 844.065	    5
  25.9038	 844.084	    5
  25.9042	 844.104	    5
  25.9045	 844.124	    5
  25.9049	 844.143	    5
  25.9053	 844.163	    5
  25.9056	 844.182	    5
  25.9060	 844.202	    5
  25.9064	 844.221	    5
  25.9068	 844.241	    4
  25.9071	 844.261	    5
  25.9075	 844.280	    5
  25.9079	 844.300	    5
  25.9082	 844.319	    4
  25.9086	 844.339	    5
  25.9090	 844.358	    4
  25.9093	 844.378	    5
  25.9097	 844.398	    5
  25.9101	 844.417	    5
  25.9105	 844.437	    5
  25.9108	 844.456	    5
  25.9112	 844.476	    5
  25.9116	 844.495	    5
  25.9119	 844.515	    5
  25.9123	 844.534	    5
  25.9127	 844.554	    5
  25.9130	 844.574	    5
  25.9134	 844.593	    5
  25.9138	 844.613	    5
  25.9142	 844.632	    5
  25.9145	 844.652	    5
  25.9149	 844.671	    5
  25.9153	 844.691	    5
  25.9156	 844.711	    5
  25.9160	 844.730	    5
  25.9164	 844.750	    5
  25.9167	 844.769	    5
  25.9171	 844.789	    5
  25.9175	 844.808	    5
  25.9179	 844.828	    5
  25.9182	 844.848	    5
  25.9186	 844.867	    5
  25.9190	 844.887	    5
  25.9193	 844.906	    5
  25.9197	 844.926	    5
  25.9201	 844.945	    5
  25.9204	 844.965	    5
  25.9208	 844.985	    4
  25.9212	 845.004	    5
  25.9215	 845.024	    5
  25.9219	 845.043	    5
  25.9223	 845.063	    5
  25.9227	 845.082	    5
  25.9230	 845.102	    5
  25.9234	 845.121	    5
  25.9238	 845.141	    4
  25.9241	 845.161	    5
  25.9245	 845.180	    4
  25.9249	 845.200	    5
  25.9252	 845.219	    5
  25.9256	 845.239	    5
  25.9260	 845.258	    4
  25.9264	 845.278	    5
  25.9267	 845.298	    5
  25.9271	 845.317	    5
  25.9275	 845.337	    5
  25.9278	 845.356	    5
  25.9282	 845.376	    4
  25.9286	 845.395	    5
  25.9289	 845.415	    4
  25.9293	 845.435	    5
  25.9297	 845.454	    5
  25.9301	 845.474	    5
  25.9304	 845.493	    5
  25.9308	 845.513	    5
  25.9312	 845.532	    5
  25.9315	 845.552	    5
  25.9319	 845.571	    5
  25.9323	 845.591	    5
  25.9326	 845.611	    5
  25.9330	 845.630	    5
  25.9334	 845.650	    5
  25.9338	 845.669	    5
  25.9341	 845.689	    5
  25.9345	 845.708	    5
  25.9349	 845.728	    5
  25.9352	 845.748	    5
  25.9356	 845.767	    5
  25.9360	 845.787	    5
  25.9363	 845.806	    5
  25.9367	 845.826	    5
  25.9371	 845.845	    5
  25.9375	 845.865	    5
  25.9378	 845.885	    5
  25.9382	 845.904	    5
  25.9386	 845.924	    5
  25.9389	 845.943	    5
  25.9393	 845.963	    5
  25.9397	 845.982	    5
  25.9400	 846.002	    5
  25.9404	 846.022	    5
  25.9408	 846.041	    5
  25.9412	 846.061	    5
  25.9415	 846.080	    5
  25.9419	 846.100	    5
  25.9423	 846.119	    5
  25.9426	 846.139	    5
  25.9430	 846.158	    5
  25.9434	 846.178	    5
  25.9437	 846.198	    5
  25.9441	 846.217	    5
  25.9445	 846.237	    5
  25.9448	 846.256	    5
  25.9452	 846.276	    4
  25.9456	 846.295	    5
  25.9460	 846.315	    5
  25.9463	 846.335	    5
  25.9467	 846.354	    5
  25.9471	 846.374	    5
  25.9474	 846.393	    5
  25.9478	 846.413	    5
  25.9482	 846.432	    5
  25.9485	 846.452	    5
  25.9489	 846.472	    5
  25.9493	 846.491	    5
  25.9497	 846.511	    5
  25.9500	 846.530	    5
  25.9504	 846.550	    5
  25.9508	 846.569	    5
  25.9511	 846.589	    5
  25.9515	 846.608	    5
  25.9519	 846.628	    5
  25.9522	 846.648	    5
  25.9526	 846.667	    5
  25.9530	 846.687	    5
  25.9534	 846.706	    5
  25.9537	 846.726	    5
  25.9541	 846.745	    5
  25.9545	 846.765	    5
  25.9548	 846.785	    5
  25.9552	 846.804	    5
  25.9556	 846.824	    5
  25.9559	 846.843	    5
  25.9563	 846.863	    5
  25.9567	 846.882	    5
  25.9571	 846.902	    5
  25.9574	 846.922	    5
  25.9578	 846.941	    5
  25.9582	 846.961	    5
  25.9585	 846.980	    5
  25.9589	 847.000	    5
  25.9593	 847.019	    5
  25.9596	 847.039	    5
  25.9600	 847.059	    5
  25.9604	 847.078	    5
  25.9608	 847.098	    4
  25.9611	 847.117	    5
  25.9615	 847.137	    5
  25.9619	 847.156	    5
  25.9622	 847.176	    5
  25.9626	 847.195	    5
  25.9630	 847.215	    5
  25.9633	 847.235	    5
  25.9637	 847.254	    5
  25.9641	 847.274	    5
  25.9645	 847.293	    5
  25.9648	 847.313	    5
  25.9652	 847.332	    5
  25.9656	 847.352	    5
  25.9659	 847.372	    5
  25.9663	 847.391	    5
  25.9667	 847.411	    5
  25.9670	 847.430	    5
  25.9674	 847.450	    5
  25.9678	 847.469	    5
  25.9681	 847.489	    5
  25.9685	 847.509	    5
  25.9689	 847.528	    4
  25.9693	 847.548	    5
  25.9696	 847.567	    4
  25.9700	 847.587	    5
  25.9704	 847.606	    5
  25.9707	 847.626	    5
  25.9711	 847.645	    4
  25.9715	 847.665	    5
  25.9718	 847.685	    4
  25.9722	 847.704	    5
  25.9726	 847.724	    5
  25.9730	 847.743	    5
  25.9733	 847.763	    4
  25.9737	 847.782	    5
  25.9741	 847.802	    4
  25.9744	 847.822	    5
  25.9748	 847.841	    5
  25.9752	 847.861	    5
  25.9755	 847.880	    4
  25.9759	 847.900	    5
  25.9763	 847.919	    5
  25.9767	 847.939	    5
  25.9770	 847.959	    5
  25.9774	 847.978	    5
  25.9778	 847.998	    5
  25.9781	 848.017	    5
  25.9785	 848.037	    4
  25.9789	 848.056	    5
  25.9792	 848.076	    5
  25.9796	 848.096	    5
  25.9800	 848.115	    5
  25.9804	 848.135	    5
  25.9807	 848.154	    5
  25.9811	 848.174	    5
  25.9815	 848.193	    5
  25.9818	 848.213	    5
  25.9822	 848.232	    5
  25.9826	 848.252	    5
  25.9829	 848.272	    4
  25.9833	 848.291	    5
  25.9837	 848.311	    5
  25.9841	 848.330	    5
  25.9844	 848.350	    4
  25.9848	 848.369	    5
  25.9852	 848.389	    4
  25.9855	 848.409	    5
  25.9859	 848.428	    4
  25.9863	 848.448	    5
  25.9866	 848.467	    5
  25.9870	 848.487	    5
  25.9874	 848.506	    5
  25.9878	 848.526	    5
  25.9881	 848.546	    4
  25.9885	 848.565	    5
  25.9889	 848.585	    4
  25.9892	 848.604	    5
  25.9896	 848.624	    4
  25.9900	 848.643	    5
  25.9903	 848.663	    5
  25.9907	 848.682	    5
  25.9911	 848.702	    5
  25.9914	 848.722	    5
  25.9918	 848.741	    5
  25.9922	 848.761	    5
  25.9926	 848.780	    5
  25.9929	 848.800	    5
  25.9933	 848.819	    5
  25.9937	 848.839	    5
  25.9940	 848.859	    5
  25.9944	 848.878	    5
  25.9948	 848.898	    5
  25.9951	 848.917	    5
  25.9955	 848.937	    4
  25.9959	 848.956	    5
  25.9963	 848.976	    5
  25.9966	 848.996	    5
  25.9970	 849.015	    5
  25.9974	 849.035	    5
  25.9977	 849.054	    5
  25.9981	 849.074	    5
  25.9985	 849.093	    5
  25.9988	 849.113	    5
  25.9992	 849.133	    5
  25.9996	 849.152	    5
